x=sensor temperature [°C], y= Integrationtime [ms], z=counts
NOTE:in the raw data .csv files Integrationtime is given in microseconds instead of milliseconds
thus the Integrationtime has to be devided by 1000 before using it as "y" with this calibration file 
z(x,y)= p00 + p10*x + p01*y + p20*x^2 + p11*x*y + p30*x^3 + p21*x^2*y
wvlngth	adjstRsq	p00	p10	p01	p20	p11	p30	p21
337.606000	9.926457e-01	1429.663307	8.816432e+00	0.017524	-3.581329e-01	-0.002337	4.557142e-03	0.000070	
338.062000	9.707764e-01	1433.439443	8.315708e+00	0.015027	-3.375257e-01	-0.002323	4.246446e-03	0.000062	
338.519000	9.988935e-01	1400.120147	1.230347e+01	0.030952	-4.907483e-01	-0.003354	6.194376e-03	0.000119	
338.975000	9.940763e-01	1422.317031	9.587227e+00	0.019552	-3.848502e-01	-0.002797	4.869629e-03	0.000082	
339.431000	9.963347e-01	1427.567819	8.980742e+00	0.021176	-3.612936e-01	-0.002595	4.569644e-03	0.000085	
339.888000	9.668020e-01	1422.304323	9.772375e+00	0.016390	-3.947310e-01	-0.002974	5.021424e-03	0.000074	
340.344000	9.991684e-01	1401.176894	1.233386e+01	0.030801	-4.962970e-01	-0.003217	6.334208e-03	0.000119	
340.801000	9.989757e-01	1401.849622	1.219068e+01	0.030163	-4.861415e-01	-0.003216	6.146065e-03	0.000118	
341.257000	9.976065e-01	1440.671318	7.296439e+00	0.004519	-2.953819e-01	-0.002062	3.724540e-03	0.000030	
341.714000	9.970930e-01	1409.382149	1.113405e+01	0.023749	-4.443382e-01	-0.003029	5.623042e-03	0.000096	
342.170000	9.990977e-01	1413.706035	1.076311e+01	0.029380	-4.329237e-01	-0.003059	5.486422e-03	0.000114	
342.627000	9.949210e-01	1429.124028	8.889315e+00	0.017979	-3.586024e-01	-0.002372	4.565095e-03	0.000074	
343.083000	9.985026e-01	1394.977369	1.291120e+01	0.029834	-5.143135e-01	-0.003239	6.505608e-03	0.000109	
343.540000	9.990451e-01	1419.509477	9.735092e+00	0.028758	-3.861868e-01	-0.002923	4.855537e-03	0.000106	
343.997000	9.990079e-01	1415.848136	1.052706e+01	0.027838	-4.239516e-01	-0.002928	5.409336e-03	0.000108	
344.453000	9.979878e-01	1414.521017	1.064292e+01	0.024871	-4.287590e-01	-0.002950	5.440970e-03	0.000098	
344.910000	9.977220e-01	1439.631471	7.641936e+00	0.020685	-3.121963e-01	-0.002499	4.000588e-03	0.000085	
345.367000	9.972730e-01	1433.571833	8.187289e+00	0.021717	-3.302766e-01	-0.002553	4.184567e-03	0.000084	
345.824000	9.965233e-01	1430.570513	8.646926e+00	0.020293	-3.498010e-01	-0.002427	4.452906e-03	0.000078	
346.281000	9.989122e-01	1409.863320	1.134186e+01	0.027646	-4.566602e-01	-0.002982	5.818771e-03	0.000106	
346.738000	9.986054e-01	1420.182193	9.972780e+00	0.025213	-3.986868e-01	-0.002756	5.048024e-03	0.000097	
347.194000	9.862250e-01	1436.043008	7.906408e+00	0.015401	-3.195216e-01	-0.002098	4.077472e-03	0.000060	
347.651000	9.981776e-01	1406.511734	1.168645e+01	0.026532	-4.721419e-01	-0.003020	6.034703e-03	0.000101	
348.108000	9.970613e-01	1420.636069	9.851318e+00	0.020041	-4.009212e-01	-0.002466	5.126717e-03	0.000085	
348.565000	9.770578e-01	1441.792080	7.241372e+00	0.011101	-2.911735e-01	-0.002311	3.666602e-03	0.000053	
349.022000	9.989110e-01	1416.555143	1.042681e+01	0.028637	-4.209331e-01	-0.003079	5.371153e-03	0.000113	
349.480000	9.975613e-01	1420.489473	9.822179e+00	0.022655	-3.922021e-01	-0.002636	4.965804e-03	0.000088	
349.937000	9.990925e-01	1412.846824	1.083985e+01	0.028423	-4.368684e-01	-0.002968	5.555077e-03	0.000109	
350.394000	9.919659e-01	1423.629734	9.441648e+00	0.018425	-3.765711e-01	-0.002804	4.740381e-03	0.000082	
350.851000	9.974387e-01	1425.517114	9.314876e+00	0.023268	-3.734455e-01	-0.002896	4.719798e-03	0.000096	
351.308000	9.990628e-01	1410.362764	1.103240e+01	0.030462	-4.392854e-01	-0.003146	5.547192e-03	0.000116	
351.765000	9.982374e-01	1418.734421	9.884394e+00	0.024697	-3.918780e-01	-0.002655	4.930937e-03	0.000094	
352.223000	9.989223e-01	1399.524517	1.226619e+01	0.030766	-4.867058e-01	-0.003173	6.149626e-03	0.000114	
352.680000	9.962765e-01	1414.523364	1.066453e+01	0.022260	-4.294203e-01	-0.002762	5.455788e-03	0.000086	
353.137000	9.956592e-01	1431.225626	8.527201e+00	0.020011	-3.391665e-01	-0.002326	4.250900e-03	0.000075	
353.595000	9.988089e-01	1419.000172	1.006814e+01	0.025731	-4.037214e-01	-0.002817	5.118847e-03	0.000102	
354.052000	9.980666e-01	1414.929253	1.035989e+01	0.025768	-4.093284e-01	-0.002997	5.131162e-03	0.000100	
354.510000	9.854381e-01	1412.508032	1.082518e+01	0.019605	-4.351038e-01	-0.002608	5.540178e-03	0.000072	
354.967000	9.891943e-01	1424.382554	9.366734e+00	0.017026	-3.756148e-01	-0.002305	4.770303e-03	0.000066	
355.425000	9.984818e-01	1420.071436	9.922397e+00	0.025050	-3.994263e-01	-0.002953	5.072695e-03	0.000102	
355.882000	9.984667e-01	1421.273532	9.690908e+00	0.024720	-3.847605e-01	-0.002684	4.833079e-03	0.000095	
356.340000	9.988911e-01	1411.043575	1.112523e+01	0.028579	-4.500634e-01	-0.003068	5.768170e-03	0.000110	
356.797000	9.979431e-01	1430.268608	8.718959e+00	0.021748	-3.519203e-01	-0.002464	4.466271e-03	0.000086	
357.255000	9.988954e-01	1405.020013	1.196039e+01	0.028611	-4.839703e-01	-0.003123	6.204545e-03	0.000110	
357.713000	9.976156e-01	1406.708247	1.143345e+01	0.024535	-4.526631e-01	-0.002809	5.693099e-03	0.000093	
358.170000	9.988232e-01	1407.183111	1.159746e+01	0.029754	-4.667036e-01	-0.003172	5.952011e-03	0.000116	
358.628000	9.983700e-01	1422.093523	9.754385e+00	0.022895	-3.925439e-01	-0.002580	4.983789e-03	0.000090	
359.086000	9.990722e-01	1407.426465	1.136657e+01	0.030179	-4.550453e-01	-0.003184	5.745378e-03	0.000117	
359.544000	9.983739e-01	1424.889178	9.323084e+00	0.024039	-3.734397e-01	-0.002709	4.722026e-03	0.000095	
360.002000	9.978960e-01	1440.075265	7.621346e+00	0.022704	-3.130375e-01	-0.003017	4.035653e-03	0.000099	
360.459000	9.988010e-01	1414.060215	1.065617e+01	0.025929	-4.260731e-01	-0.002796	5.389861e-03	0.000104	
360.917000	9.983796e-01	1418.176982	1.011496e+01	0.024163	-4.062433e-01	-0.002651	5.171238e-03	0.000092	
361.375000	9.974894e-01	1408.715021	1.134638e+01	0.023937	-4.544102e-01	-0.002967	5.783086e-03	0.000098	
361.833000	9.989176e-01	1405.154023	1.163743e+01	0.029494	-4.619209e-01	-0.003048	5.807935e-03	0.000112	
362.291000	9.955043e-01	1426.507199	9.043032e+00	0.020625	-3.604702e-01	-0.002619	4.540351e-03	0.000081	
362.749000	9.951240e-01	1417.688322	1.006392e+01	0.020990	-4.013825e-01	-0.002965	5.060741e-03	0.000091	
363.207000	9.976025e-01	1414.688645	1.044160e+01	0.022884	-4.158661e-01	-0.002541	5.246005e-03	0.000085	
363.665000	9.988234e-01	1418.381124	9.940792e+00	0.027047	-3.983897e-01	-0.002859	5.022875e-03	0.000104	
364.124000	9.989158e-01	1421.752374	9.733586e+00	0.027232	-3.929674e-01	-0.002822	4.977053e-03	0.000105	
364.582000	9.986424e-01	1406.563416	1.163059e+01	0.027129	-4.704000e-01	-0.002927	6.021171e-03	0.000104	
365.040000	9.783365e-01	1436.823115	7.813044e+00	0.014318	-3.144764e-01	-0.002158	3.977947e-03	0.000060	
365.498000	9.691414e-01	1420.293071	9.923253e+00	0.015167	-4.004824e-01	-0.002847	5.099508e-03	0.000069	
365.957000	9.981278e-01	1421.126308	9.937395e+00	0.003855	-4.081633e-01	-0.002972	5.248983e-03	0.000051	
366.415000	9.908966e-01	1429.590253	8.642956e+00	0.016928	-3.453205e-01	-0.002399	4.351948e-03	0.000071	
366.873000	9.972772e-01	1418.763749	1.011984e+01	0.020978	-4.093877e-01	-0.002481	5.240230e-03	0.000082	
367.332000	9.988644e-01	1416.222792	1.034071e+01	0.027707	-4.126937e-01	-0.003179	5.206751e-03	0.000112	
367.790000	9.992248e-01	1409.218508	1.118719e+01	0.030668	-4.465176e-01	-0.003203	5.626908e-03	0.000118	
368.248000	9.990032e-01	1412.844453	1.087373e+01	0.030135	-4.406606e-01	-0.003102	5.653355e-03	0.000115	
368.707000	9.884614e-01	1419.860991	9.819574e+00	0.018413	-3.912767e-01	-0.002480	4.930733e-03	0.000070	
369.165000	9.979941e-01	1428.076750	9.059741e+00	0.021933	-3.706811e-01	-0.002566	4.755959e-03	0.000088	
369.624000	9.985248e-01	1411.937854	1.089187e+01	0.025108	-4.361659e-01	-0.002728	5.540878e-03	0.000095	
370.083000	9.986259e-01	1417.583769	1.021986e+01	0.027114	-4.092615e-01	-0.003043	5.198007e-03	0.000106	
370.541000	9.983673e-01	1421.507936	9.748925e+00	0.025936	-3.901774e-01	-0.002863	4.937885e-03	0.000099	
371.000000	9.984349e-01	1404.460088	1.179752e+01	0.026222	-4.724730e-01	-0.002956	6.004473e-03	0.000102	
371.458000	9.903074e-01	1420.154222	9.669511e+00	0.018721	-3.859187e-01	-0.002999	4.858857e-03	0.000087	
371.917000	9.856281e-01	1433.574005	8.122199e+00	0.015791	-3.226830e-01	-0.002556	4.048124e-03	0.000073	
372.376000	9.977966e-01	1430.142717	8.700240e+00	0.023438	-3.484722e-01	-0.002778	4.393763e-03	0.000092	
372.835000	9.981512e-01	1415.566006	1.044413e+01	0.023941	-4.196054e-01	-0.002725	5.334280e-03	0.000093	
373.293000	9.983230e-01	1394.256813	1.313709e+01	0.032145	-5.231569e-01	-0.003578	6.611853e-03	0.000116	
373.752000	9.982182e-01	1411.285991	1.082967e+01	0.025058	-4.295838e-01	-0.002829	5.412479e-03	0.000099	
374.211000	9.989877e-01	1403.290533	1.193638e+01	0.028459	-4.792532e-01	-0.003085	6.102586e-03	0.000112	
374.670000	9.982086e-01	1407.408872	1.136701e+01	0.026833	-4.515649e-01	-0.002848	5.707645e-03	0.000100	
375.129000	9.972504e-01	1432.201210	8.378958e+00	0.022223	-3.355058e-01	-0.002651	4.241122e-03	0.000088	
375.588000	9.990010e-01	1403.972408	1.186783e+01	0.031062	-4.730522e-01	-0.003211	5.984917e-03	0.000114	
376.047000	9.980952e-01	1403.162052	1.184428e+01	0.025669	-4.691741e-01	-0.003033	5.922109e-03	0.000101	
376.506000	9.950152e-01	1420.658570	9.855465e+00	0.020409	-4.011109e-01	-0.002586	5.127997e-03	0.000079	
376.965000	9.987811e-01	1396.770998	1.260354e+01	0.029902	-4.992936e-01	-0.003272	6.276935e-03	0.000114	
377.424000	9.989717e-01	1405.855407	1.148930e+01	0.028005	-4.547524e-01	-0.002988	5.729421e-03	0.000108	
377.883000	9.961025e-01	1422.666502	9.577071e+00	0.020661	-3.870927e-01	-0.002516	4.941225e-03	0.000079	
378.343000	9.983776e-01	1425.419759	9.270075e+00	0.024583	-3.735708e-01	-0.002721	4.745063e-03	0.000096	
378.802000	9.981100e-01	1270.885215	2.807748e+01	0.055355	-1.106560e+00	-0.005506	1.391035e-02	0.000172	
379.261000	9.987509e-01	1399.945745	1.220760e+01	0.029485	-4.869862e-01	-0.002986	6.189360e-03	0.000109	
379.720000	9.982596e-01	1407.144424	1.150235e+01	0.026343	-4.589520e-01	-0.002953	5.814331e-03	0.000101	
380.180000	9.981261e-01	1420.716976	9.868217e+00	0.022529	-3.991920e-01	-0.002466	5.111144e-03	0.000089	
380.639000	9.991173e-01	1398.537920	1.252016e+01	0.032096	-5.017979e-01	-0.003335	6.396825e-03	0.000124	
381.098000	9.983366e-01	1422.921799	9.564445e+00	0.024219	-3.866259e-01	-0.002619	4.938132e-03	0.000094	
381.558000	9.988285e-01	1421.446324	9.800135e+00	0.026240	-3.942469e-01	-0.002804	5.010110e-03	0.000101	
382.017000	9.984583e-01	1422.577563	9.484689e+00	0.024461	-3.783418e-01	-0.002744	4.754691e-03	0.000096	
382.477000	9.987898e-01	1416.147549	1.018525e+01	0.026659	-4.036213e-01	-0.002874	5.078790e-03	0.000102	
382.936000	9.989342e-01	1410.793528	1.112545e+01	0.027468	-4.461004e-01	-0.002960	5.662419e-03	0.000106	
383.396000	9.991420e-01	1412.955825	1.083013e+01	0.029754	-4.340805e-01	-0.003151	5.515887e-03	0.000116	
383.855000	9.973961e-01	1418.046382	1.013936e+01	0.022011	-4.087501e-01	-0.002599	5.224211e-03	0.000086	
384.315000	9.980415e-01	1435.658037	8.051996e+00	0.021732	-3.280365e-01	-0.002494	4.202706e-03	0.000086	
384.775000	9.984810e-01	1413.802195	1.072895e+01	0.024315	-4.304759e-01	-0.002744	5.484601e-03	0.000096	
385.234000	9.954517e-01	1415.764307	1.046126e+01	0.021182	-4.182068e-01	-0.002540	5.283572e-03	0.000081	
385.694000	9.960439e-01	1430.081300	8.807173e+00	0.020104	-3.587528e-01	-0.002519	4.604652e-03	0.000081	
386.154000	9.989484e-01	1410.923098	1.090103e+01	0.028616	-4.330229e-01	-0.003047	5.458744e-03	0.000116	
386.613000	9.982490e-01	1424.191601	9.342659e+00	0.023783	-3.731801e-01	-0.002690	4.729952e-03	0.000093	
387.073000	9.869947e-01	1417.519594	1.003828e+01	0.017217	-3.996685e-01	-0.002429	5.039336e-03	0.000069	
387.533000	9.986176e-01	1397.892411	1.242943e+01	0.028530	-5.014119e-01	-0.002943	6.337263e-03	0.000106	
387.993000	9.986804e-01	1407.782070	1.130060e+01	0.029063	-4.537921e-01	-0.003012	5.774141e-03	0.000109	
388.453000	9.723146e-01	1437.799629	7.565600e+00	0.016105	-3.019161e-01	-0.002420	3.795880e-03	0.000065	
388.913000	9.993486e-01	1414.977367	1.050636e+01	0.028407	-4.250674e-01	-0.002950	5.448110e-03	0.000115	
389.373000	9.990587e-01	1393.859035	1.303756e+01	0.030680	-5.196340e-01	-0.003225	6.585828e-03	0.000119	
389.833000	9.985521e-01	1389.777879	1.350488e+01	0.031318	-5.343041e-01	-0.003306	6.744103e-03	0.000114	
390.293000	9.927612e-01	1424.553504	9.311231e+00	0.019624	-3.750675e-01	-0.002929	4.761275e-03	0.000086	
390.753000	9.987438e-01	1410.952249	1.108448e+01	0.028630	-4.463163e-01	-0.003204	5.682430e-03	0.000112	
391.213000	9.980606e-01	1402.539158	1.193895e+01	0.025395	-4.779707e-01	-0.002878	6.055879e-03	0.000098	
391.673000	9.976828e-01	1410.185093	1.108861e+01	0.023373	-4.431133e-01	-0.002760	5.613842e-03	0.000092	
392.133000	9.987084e-01	1415.442615	1.048955e+01	0.026350	-4.196096e-01	-0.003058	5.309612e-03	0.000107	
392.593000	9.976038e-01	1428.726171	8.896205e+00	0.022191	-3.606586e-01	-0.002534	4.617593e-03	0.000084	
393.054000	9.987823e-01	1416.011119	1.054489e+01	0.025667	-4.245521e-01	-0.002865	5.374609e-03	0.000102	
393.514000	9.963042e-01	1417.920721	1.041262e+01	0.022085	-4.216648e-01	-0.002891	5.386954e-03	0.000089	
393.974000	9.992418e-01	1400.951905	1.229123e+01	0.032126	-4.892709e-01	-0.003286	6.193291e-03	0.000124	
394.435000	9.975111e-01	1464.570461	4.454072e+00	0.001674	-1.831460e-01	-0.001276	2.322631e-03	0.000011	
394.895000	9.988948e-01	1407.992578	1.139769e+01	0.028016	-4.592509e-01	-0.003088	5.867150e-03	0.000109	
395.355000	9.988251e-01	1408.922291	1.127947e+01	0.028140	-4.514470e-01	-0.003145	5.706425e-03	0.000110	
395.816000	9.991244e-01	1405.730587	1.175394e+01	0.030580	-4.749159e-01	-0.003137	6.080583e-03	0.000117	
396.276000	9.989711e-01	1407.524866	1.137101e+01	0.028035	-4.533407e-01	-0.002884	5.731821e-03	0.000106	
396.737000	9.975999e-01	1419.349777	1.006602e+01	0.025123	-4.047850e-01	-0.002932	5.148676e-03	0.000096	
397.197000	9.978562e-01	1411.265158	1.093344e+01	0.029230	-4.328041e-01	-0.003118	5.439378e-03	0.000111	
397.658000	9.962223e-01	1373.826764	1.536669e+01	0.032898	-6.054727e-01	-0.003805	7.603132e-03	0.000112	
398.119000	9.984437e-01	1410.765762	1.087986e+01	0.025533	-4.311988e-01	-0.002797	5.424323e-03	0.000099	
398.579000	9.808026e-01	1421.958713	9.628304e+00	0.014493	-3.871361e-01	-0.003091	4.925223e-03	0.000087	
399.040000	9.991063e-01	1406.634885	1.152786e+01	0.029069	-4.634767e-01	-0.002981	5.917912e-03	0.000112	
399.501000	9.980856e-01	1432.680115	8.245864e+00	0.021680	-3.307952e-01	-0.002558	4.181837e-03	0.000090	
399.961000	9.989994e-01	1401.901342	1.208958e+01	0.030163	-4.849981e-01	-0.003138	6.160706e-03	0.000115	
400.422000	9.989619e-01	1396.208176	1.284530e+01	0.029669	-5.127026e-01	-0.003076	6.507302e-03	0.000111	
400.883000	9.989836e-01	1415.110505	1.041911e+01	0.028857	-4.140756e-01	-0.002921	5.208133e-03	0.000107	
401.344000	9.989445e-01	1395.085351	1.303754e+01	0.031080	-5.220165e-01	-0.003404	6.639705e-03	0.000120	
401.805000	9.985338e-01	1412.365768	1.090756e+01	0.024960	-4.377222e-01	-0.002880	5.563639e-03	0.000100	
402.265000	9.978697e-01	1409.416569	1.126660e+01	0.023440	-4.531424e-01	-0.002592	5.788083e-03	0.000090	
402.726000	9.982868e-01	1412.512795	1.076692e+01	0.024817	-4.279042e-01	-0.002753	5.395032e-03	0.000095	
403.187000	9.978699e-01	1443.426155	7.198791e+00	0.022014	-2.942929e-01	-0.002654	3.760242e-03	0.000098	
403.648000	9.979843e-01	1430.549741	8.605437e+00	0.021368	-3.455190e-01	-0.002395	4.361160e-03	0.000083	
404.109000	9.981045e-01	1425.997880	9.173738e+00	0.022744	-3.677806e-01	-0.002609	4.660220e-03	0.000088	
404.571000	9.985275e-01	1406.363668	1.156403e+01	0.027424	-4.632666e-01	-0.003069	5.875631e-03	0.000104	
405.032000	9.985296e-01	1420.218920	9.876939e+00	0.025103	-3.997478e-01	-0.002846	5.100989e-03	0.000101	
405.493000	9.985645e-01	1423.032660	9.412968e+00	0.025123	-3.768451e-01	-0.002727	4.756112e-03	0.000099	
405.954000	9.979308e-01	1416.138472	1.022114e+01	0.023371	-4.055925e-01	-0.002691	5.105266e-03	0.000090	
406.415000	9.948245e-01	1414.740903	1.054643e+01	0.020175	-4.223995e-01	-0.002541	5.356035e-03	0.000078	
406.876000	9.991133e-01	1399.062626	1.246169e+01	0.030885	-4.986196e-01	-0.003244	6.328122e-03	0.000118	
407.338000	9.984107e-01	1422.228901	9.639234e+00	0.023688	-3.890122e-01	-0.002589	4.966087e-03	0.000094	
407.799000	9.983614e-01	1419.489466	9.895081e+00	0.024554	-3.951768e-01	-0.002720	5.004076e-03	0.000093	
408.260000	9.990396e-01	1421.888133	9.675697e+00	0.027717	-3.869963e-01	-0.002884	4.894559e-03	0.000107	
408.722000	9.753981e-01	1426.267472	9.305840e+00	0.011289	-3.788081e-01	-0.002549	4.869183e-03	0.000060	
409.183000	9.987177e-01	1405.240190	1.181431e+01	0.030118	-4.731711e-01	-0.003190	6.011016e-03	0.000113	
409.644000	9.983427e-01	1428.081542	8.829429e+00	0.024311	-3.546915e-01	-0.002763	4.502883e-03	0.000095	
410.106000	9.989732e-01	1415.974564	1.030472e+01	0.027540	-4.113767e-01	-0.002865	5.203052e-03	0.000107	
410.567000	9.989648e-01	1401.503598	1.226372e+01	0.029144	-4.958263e-01	-0.003178	6.360407e-03	0.000114	
411.029000	9.979246e-01	1421.642317	9.856301e+00	0.023541	-4.003437e-01	-0.002747	5.132176e-03	0.000092	
411.491000	9.961433e-01	1418.468971	1.017330e+01	0.020840	-4.106446e-01	-0.002701	5.234027e-03	0.000085	
411.952000	9.981601e-01	1429.897386	8.626309e+00	0.022761	-3.453986e-01	-0.002595	4.352356e-03	0.000090	
412.414000	9.991764e-01	1402.274695	1.197849e+01	0.031095	-4.786834e-01	-0.003246	6.026438e-03	0.000120	
412.875000	9.989080e-01	1397.955604	1.259135e+01	0.030919	-5.033055e-01	-0.003326	6.386846e-03	0.000116	
413.337000	9.991245e-01	1388.236977	1.373613e+01	0.035214	-5.460698e-01	-0.003561	6.915385e-03	0.000127	
413.799000	9.982275e-01	1423.898358	9.385690e+00	0.023369	-3.736452e-01	-0.002652	4.707587e-03	0.000092	
414.261000	9.977746e-01	1418.047052	1.008310e+01	0.023534	-4.034662e-01	-0.002640	5.112089e-03	0.000089	
414.722000	9.984314e-01	1407.351555	1.141832e+01	0.028053	-4.560433e-01	-0.003021	5.784326e-03	0.000106	
415.184000	9.988809e-01	1421.910169	9.717534e+00	0.026236	-3.921277e-01	-0.002758	4.995018e-03	0.000101	
415.646000	9.985593e-01	1409.595076	1.098522e+01	0.027405	-4.406744e-01	-0.002934	5.606318e-03	0.000104	
416.108000	9.983303e-01	1396.762071	1.251455e+01	0.027405	-4.963779e-01	-0.003148	6.270632e-03	0.000105	
416.570000	9.990406e-01	1408.990546	1.107288e+01	0.029593	-4.461635e-01	-0.003186	5.596812e-03	0.000115	
417.032000	9.993202e-01	1382.151696	1.441250e+01	0.035376	-5.707681e-01	-0.003743	7.207868e-03	0.000136	
417.494000	9.963505e-01	1413.398424	1.066978e+01	0.021550	-4.285635e-01	-0.002677	5.460261e-03	0.000086	
417.956000	9.987307e-01	1415.258454	1.050972e+01	0.028168	-4.257288e-01	-0.002975	5.453679e-03	0.000109	
418.418000	9.985927e-01	1403.125818	1.184906e+01	0.028220	-4.724930e-01	-0.003297	5.968279e-03	0.000113	
418.880000	9.923563e-01	1436.621476	7.918456e+00	0.007641	-3.227932e-01	-0.002451	4.140714e-03	0.000052	
419.342000	9.915246e-01	1435.756472	7.876291e+00	0.017087	-3.159213e-01	-0.002251	4.005511e-03	0.000066	
419.804000	9.990053e-01	1393.264071	1.315324e+01	0.030416	-5.263756e-01	-0.003234	6.687183e-03	0.000115	
420.267000	9.985503e-01	1412.628832	1.074538e+01	0.027457	-4.308968e-01	-0.002884	5.474865e-03	0.000104	
420.729000	9.948816e-01	1411.643146	1.090999e+01	0.020872	-4.384791e-01	-0.002846	5.576792e-03	0.000087	
421.191000	9.964543e-01	1411.309020	1.093890e+01	0.021493	-4.391597e-01	-0.002847	5.589013e-03	0.000090	
421.653000	9.988015e-01	1404.255603	1.169474e+01	0.029168	-4.668140e-01	-0.003052	5.912997e-03	0.000109	
422.116000	9.464158e-01	1435.283215	8.006119e+00	0.011799	-3.243257e-01	-0.002040	4.151562e-03	0.000048	
422.578000	9.970406e-01	1417.919089	1.013960e+01	0.022995	-4.095013e-01	-0.002668	5.230506e-03	0.000088	
423.041000	9.989231e-01	1408.163412	1.141421e+01	0.028072	-4.596143e-01	-0.003139	5.862473e-03	0.000112	
423.503000	9.992448e-01	1401.885039	1.202541e+01	0.031356	-4.795779e-01	-0.003231	6.067597e-03	0.000119	
423.965000	9.975793e-01	1401.072281	1.216341e+01	0.025349	-4.884155e-01	-0.003013	6.214434e-03	0.000098	
424.428000	9.975858e-01	1422.208908	9.755500e+00	0.022413	-3.987389e-01	-0.002666	5.132546e-03	0.000088	
424.890000	9.992039e-01	1401.535625	1.209846e+01	0.031571	-4.823239e-01	-0.003228	6.100336e-03	0.000120	
425.353000	9.990180e-01	1412.534606	1.093723e+01	0.026990	-4.405356e-01	-0.002886	5.618014e-03	0.000108	
425.816000	9.982823e-01	1404.093728	1.165250e+01	0.025292	-4.615489e-01	-0.002778	5.818291e-03	0.000096	
426.278000	9.804638e-01	1425.177166	9.232777e+00	0.016093	-3.709582e-01	-0.002315	4.710949e-03	0.000063	
426.741000	9.989904e-01	1411.877368	1.089584e+01	0.028760	-4.355144e-01	-0.003020	5.513227e-03	0.000111	
427.204000	9.988707e-01	1410.898896	1.108357e+01	0.026470	-4.492730e-01	-0.002815	5.764716e-03	0.000104	
427.666000	9.981607e-01	1404.794068	1.154692e+01	0.025316	-4.591767e-01	-0.002850	5.809655e-03	0.000097	
428.129000	9.972788e-01	1411.951524	1.078291e+01	0.024212	-4.326251e-01	-0.002782	5.486440e-03	0.000090	
428.592000	9.968663e-01	1412.072828	1.082239e+01	0.023104	-4.343963e-01	-0.002843	5.518705e-03	0.000091	
429.055000	9.990037e-01	1395.238660	1.277338e+01	0.030562	-5.099650e-01	-0.003114	6.456337e-03	0.000114	
429.518000	9.975111e-01	1416.826126	1.032633e+01	0.022325	-4.164278e-01	-0.002768	5.314400e-03	0.000092	
429.981000	9.986750e-01	1417.781122	1.002348e+01	0.026860	-3.993783e-01	-0.002910	5.051673e-03	0.000103	
430.443000	9.993837e-01	1393.818952	1.300056e+01	0.036396	-5.161226e-01	-0.003637	6.520799e-03	0.000138	
430.906000	9.989085e-01	1390.679277	1.344985e+01	0.030036	-5.404083e-01	-0.003198	6.893209e-03	0.000116	
431.369000	9.981532e-01	1407.363852	1.134898e+01	0.024505	-4.546221e-01	-0.002812	5.783225e-03	0.000099	
431.832000	9.988013e-01	1421.896368	9.633343e+00	0.026645	-3.850450e-01	-0.002909	4.880707e-03	0.000105	
432.296000	9.987137e-01	1419.805137	9.809270e+00	0.026683	-3.940050e-01	-0.002796	5.007667e-03	0.000103	
432.759000	9.991544e-01	1412.364544	1.053730e+01	0.031447	-4.162852e-01	-0.003197	5.225979e-03	0.000119	
433.222000	9.955558e-01	1411.845853	1.095352e+01	0.021249	-4.441139e-01	-0.002706	5.705998e-03	0.000084	
433.685000	9.958579e-01	1411.746960	1.084231e+01	0.020362	-4.340137e-01	-0.002460	5.521330e-03	0.000079	
434.148000	9.988623e-01	1412.635495	1.090321e+01	0.027568	-4.411583e-01	-0.002979	5.664093e-03	0.000107	
434.611000	9.992296e-01	1408.732786	1.133937e+01	0.030535	-4.561442e-01	-0.003179	5.812953e-03	0.000119	
435.075000	9.963769e-01	1424.434475	9.576746e+00	0.018176	-3.902516e-01	-0.002345	5.032346e-03	0.000076	
435.538000	9.989318e-01	1399.570309	1.248921e+01	0.028619	-5.011638e-01	-0.003029	6.378774e-03	0.000109	
436.001000	9.983819e-01	1415.527582	1.033711e+01	0.023982	-4.115517e-01	-0.002984	5.182995e-03	0.000105	
436.465000	9.971430e-01	1427.568190	9.028351e+00	0.021034	-3.650555e-01	-0.002419	4.666071e-03	0.000081	
436.928000	9.881016e-01	1527.367127	-3.271225e+00	0.000279	1.165413e-01	-0.000643	-1.372229e-03	0.000040	
437.391000	9.982860e-01	1414.973879	1.048725e+01	0.025758	-4.182429e-01	-0.002989	5.292593e-03	0.000101	
437.855000	9.417646e-01	1419.936844	9.970356e+00	0.013876	-4.064850e-01	-0.002346	5.229454e-03	0.000059	
438.318000	9.986204e-01	1427.565439	8.845633e+00	0.025652	-3.527640e-01	-0.002810	4.443804e-03	0.000100	
438.782000	9.987297e-01	1402.810926	1.195097e+01	0.028236	-4.765099e-01	-0.003183	6.030188e-03	0.000111	
439.245000	9.990652e-01	1419.116839	1.014106e+01	0.028698	-4.121980e-01	-0.003027	5.294389e-03	0.000112	
439.709000	9.988718e-01	1403.948386	1.198243e+01	0.028727	-4.806525e-01	-0.003062	6.108793e-03	0.000110	
440.173000	9.650992e-01	1454.636424	5.599579e+00	0.008329	-2.298133e-01	-0.001490	2.937587e-03	0.000031	
440.636000	9.889413e-01	1421.223662	9.762058e+00	0.019230	-3.964246e-01	-0.002534	5.089711e-03	0.000072	
441.100000	9.989930e-01	1413.558263	1.065939e+01	0.028530	-4.250375e-01	-0.003158	5.372460e-03	0.000114	
441.564000	9.990998e-01	1410.743029	1.095856e+01	0.028706	-4.398096e-01	-0.003014	5.592044e-03	0.000112	
442.028000	9.961027e-01	1435.902570	7.856650e+00	0.019000	-3.130969e-01	-0.002263	3.936719e-03	0.000073	
442.491000	9.991034e-01	1398.533451	1.251720e+01	0.032639	-5.021091e-01	-0.003488	6.411460e-03	0.000127	
442.955000	9.988668e-01	1411.682880	1.089008e+01	0.027571	-4.376657e-01	-0.002940	5.581959e-03	0.000105	
443.419000	9.983953e-01	1418.578525	1.004385e+01	0.025217	-4.025904e-01	-0.002888	5.118006e-03	0.000099	
443.883000	9.963534e-01	1422.166522	9.665587e+00	0.019463	-3.866311e-01	-0.002256	4.906649e-03	0.000076	
444.347000	9.373673e-01	1351.831434	1.820602e+01	0.036064	-7.216014e-01	-0.003965	9.076854e-03	0.000112	
444.811000	9.988071e-01	1408.408452	1.137089e+01	0.027605	-4.581361e-01	-0.003004	5.857982e-03	0.000106	
445.275000	9.992465e-01	1404.562249	1.173924e+01	0.031511	-4.686180e-01	-0.003185	5.947561e-03	0.000120	
445.739000	9.691796e-01	1436.639794	7.882849e+00	0.009742	-3.185170e-01	-0.002021	4.068791e-03	0.000047	
446.203000	9.988489e-01	1410.882664	1.087284e+01	0.027358	-4.327708e-01	-0.002959	5.459909e-03	0.000107	
446.667000	9.988478e-01	1404.130395	1.174687e+01	0.028480	-4.663836e-01	-0.003039	5.892599e-03	0.000111	
447.131000	9.987909e-01	1397.642543	1.272339e+01	0.029068	-5.107006e-01	-0.003167	6.518953e-03	0.000111	
447.595000	9.986109e-01	1424.578379	9.514343e+00	0.024563	-3.884271e-01	-0.002703	5.004227e-03	0.000097	
448.060000	9.913753e-01	1425.902494	9.013098e+00	0.020156	-3.636676e-01	-0.002526	4.568217e-03	0.000075	
448.524000	9.983364e-01	1412.000816	1.062827e+01	0.026884	-4.178166e-01	-0.003111	5.207839e-03	0.000105	
448.988000	9.985778e-01	1432.118724	8.407266e+00	0.023119	-3.426790e-01	-0.002552	4.385853e-03	0.000092	
449.452000	9.977700e-01	1421.201976	9.770384e+00	0.022055	-3.947404e-01	-0.002553	5.021788e-03	0.000087	
449.917000	9.988912e-01	1417.383949	1.019474e+01	0.026290	-4.078666e-01	-0.002819	5.176077e-03	0.000103	
450.381000	9.984527e-01	1407.538023	1.128643e+01	0.025947	-4.482036e-01	-0.003132	5.645390e-03	0.000107	
450.845000	9.840439e-01	1430.957716	8.539992e+00	0.015343	-3.470484e-01	-0.002288	4.431892e-03	0.000065	
451.310000	9.989852e-01	1410.806697	1.099187e+01	0.029197	-4.423657e-01	-0.003059	5.643623e-03	0.000113	
451.774000	9.989516e-01	1375.631162	1.537932e+01	0.035653	-6.172500e-01	-0.003645	7.877293e-03	0.000133	
452.239000	9.994753e-01	1378.876645	1.497784e+01	0.035708	-5.996473e-01	-0.003653	7.640408e-03	0.000135	
452.703000	9.993708e-01	1382.122128	1.457636e+01	0.035762	-5.820445e-01	-0.003661	7.403524e-03	0.000137	
453.168000	9.992004e-01	1393.552378	1.308195e+01	0.033478	-5.242504e-01	-0.003379	6.637513e-03	0.000126	
453.632000	9.987113e-01	1406.513591	1.131019e+01	0.027621	-4.459387e-01	-0.003020	5.599346e-03	0.000106	
454.097000	9.975352e-01	1434.360884	8.189644e+00	0.020550	-3.333563e-01	-0.002307	4.270199e-03	0.000079	
454.562000	9.989313e-01	1419.545062	9.902651e+00	0.026277	-3.971570e-01	-0.002782	5.047893e-03	0.000102	
455.026000	9.976556e-01	1427.654762	8.782434e+00	0.022864	-3.472972e-01	-0.002601	4.337450e-03	0.000087	
455.491000	9.985224e-01	1411.802949	1.084194e+01	0.026451	-4.355972e-01	-0.002881	5.545261e-03	0.000103	
455.956000	9.989041e-01	1410.959373	1.091683e+01	0.028159	-4.370613e-01	-0.002971	5.548049e-03	0.000107	
456.421000	9.974347e-01	1415.900295	1.031332e+01	0.023713	-4.138607e-01	-0.002831	5.271306e-03	0.000092	
456.886000	9.993413e-01	1372.285741	1.566098e+01	0.037562	-6.230359e-01	-0.003877	7.903518e-03	0.000142	
457.350000	9.986411e-01	1405.102941	1.174659e+01	0.027347	-4.731376e-01	-0.003056	6.046369e-03	0.000108	
457.815000	9.965974e-01	1415.809416	1.023432e+01	0.021887	-4.087648e-01	-0.002750	5.176019e-03	0.000087	
458.280000	9.588185e-01	1415.064046	1.040072e+01	0.015699	-4.195287e-01	-0.002755	5.322429e-03	0.000069	
458.745000	9.990316e-01	1397.401497	1.260537e+01	0.029985	-5.022210e-01	-0.003168	6.355828e-03	0.000115	
459.210000	9.992113e-01	1404.167036	1.186042e+01	0.030020	-4.772832e-01	-0.003100	6.081612e-03	0.000117	
459.675000	9.982065e-01	1414.315736	1.040814e+01	0.026373	-4.129925e-01	-0.002943	5.182914e-03	0.000101	
460.140000	9.972945e-01	1411.809107	1.073988e+01	0.022752	-4.275050e-01	-0.002763	5.372196e-03	0.000090	
460.605000	9.985542e-01	1407.776054	1.120745e+01	0.027436	-4.445396e-01	-0.003092	5.593007e-03	0.000107	
461.070000	9.979785e-01	1413.379412	1.060210e+01	0.022615	-4.243910e-01	-0.002558	5.377609e-03	0.000087	
461.536000	9.989420e-01	1407.472906	1.124732e+01	0.029545	-4.448727e-01	-0.003124	5.597334e-03	0.000116	
462.001000	9.986293e-01	1429.746257	8.565595e+00	0.023217	-3.432762e-01	-0.002517	4.345461e-03	0.000092	
462.466000	9.991535e-01	1417.135782	1.034482e+01	0.028143	-4.194258e-01	-0.002963	5.371443e-03	0.000112	
462.931000	9.986909e-01	1405.588328	1.170838e+01	0.027893	-4.704807e-01	-0.003143	5.992731e-03	0.000109	
463.397000	9.702240e-01	1417.695283	1.004733e+01	0.016506	-4.021316e-01	-0.002670	5.089934e-03	0.000071	
463.862000	9.962628e-01	1413.036698	1.067737e+01	0.021366	-4.281319e-01	-0.003161	5.426685e-03	0.000099	
464.327000	9.988344e-01	1405.693703	1.164023e+01	0.029338	-4.649159e-01	-0.003216	5.890889e-03	0.000113	
464.793000	9.989668e-01	1413.597098	1.063662e+01	0.027729	-4.291920e-01	-0.003007	5.472147e-03	0.000110	
465.258000	9.985668e-01	1400.060954	1.243307e+01	0.025785	-5.014544e-01	-0.002951	6.405774e-03	0.000102	
465.724000	9.983047e-01	1427.947776	8.860365e+00	0.022904	-3.556651e-01	-0.002502	4.507353e-03	0.000088	
466.189000	9.902351e-01	1435.997941	7.913959e+00	0.016118	-3.217756e-01	-0.002373	4.100913e-03	0.000070	
466.655000	9.988890e-01	1419.864478	9.969970e+00	0.025771	-3.995807e-01	-0.002896	5.063710e-03	0.000105	
467.120000	9.989798e-01	1409.855500	1.105930e+01	0.028515	-4.434100e-01	-0.003021	5.645282e-03	0.000111	
467.586000	9.988976e-01	1401.913205	1.201430e+01	0.028047	-4.817135e-01	-0.003234	6.096811e-03	0.000114	
468.051000	9.979560e-01	1393.616928	1.293187e+01	0.027929	-5.145658e-01	-0.003080	6.509581e-03	0.000105	
468.517000	9.973952e-01	1430.505740	8.660926e+00	0.020982	-3.508336e-01	-0.002440	4.468558e-03	0.000082	
468.983000	9.974486e-01	1411.700520	1.090514e+01	0.023512	-4.390874e-01	-0.002905	5.593364e-03	0.000095	
469.448000	9.990210e-01	1427.360166	9.037006e+00	0.025978	-3.698907e-01	-0.002689	4.750040e-03	0.000107	
469.914000	9.989645e-01	1404.103427	1.178239e+01	0.028782	-4.731030e-01	-0.003058	6.026606e-03	0.000111	
470.380000	9.988835e-01	1400.263891	1.214391e+01	0.030185	-4.838127e-01	-0.003152	6.103446e-03	0.000114	
470.846000	9.981865e-01	1400.559123	1.220371e+01	0.026296	-4.866196e-01	-0.003042	6.137967e-03	0.000104	
471.312000	9.992724e-01	1393.648428	1.294253e+01	0.035905	-5.148416e-01	-0.003629	6.508733e-03	0.000138	
471.778000	9.990636e-01	1391.531396	1.323982e+01	0.030693	-5.272547e-01	-0.003215	6.678746e-03	0.000117	
472.243000	9.985270e-01	1423.343833	9.530518e+00	0.022595	-3.867880e-01	-0.002454	4.953920e-03	0.000088	
472.709000	9.963596e-01	1429.346032	8.643509e+00	0.020764	-3.468293e-01	-0.002547	4.397179e-03	0.000081	
473.175000	9.971825e-01	1417.419355	1.027962e+01	0.022208	-4.137040e-01	-0.002795	5.273809e-03	0.000090	
473.641000	9.969912e-01	1428.278691	8.812032e+00	0.020079	-3.540662e-01	-0.002501	4.494503e-03	0.000081	
474.107000	9.993321e-01	1386.720279	1.390722e+01	0.033178	-5.549136e-01	-0.003394	7.035352e-03	0.000126	
474.574000	9.989978e-01	1397.458085	1.253100e+01	0.029570	-5.007541e-01	-0.003078	6.364794e-03	0.000111	
475.040000	9.979838e-01	1434.035265	8.265397e+00	0.019809	-3.346729e-01	-0.002186	4.247212e-03	0.000078	
475.506000	9.986350e-01	1424.768273	9.320554e+00	0.024634	-3.762038e-01	-0.002701	4.792409e-03	0.000097	
475.972000	9.981125e-01	1426.068685	9.153448e+00	0.022837	-3.699507e-01	-0.002587	4.720547e-03	0.000089	
476.438000	9.984124e-01	1412.010173	1.072073e+01	0.026464	-4.289548e-01	-0.002995	5.417221e-03	0.000105	
476.905000	9.989972e-01	1416.779021	1.027568e+01	0.027836	-4.132515e-01	-0.002932	5.254182e-03	0.000108	
477.371000	9.993559e-01	1416.360531	1.016600e+01	0.027325	-4.057053e-01	-0.002888	5.126944e-03	0.000106	
477.837000	9.988127e-01	1415.942040	1.005632e+01	0.026814	-3.981592e-01	-0.002844	4.999705e-03	0.000104	
478.303000	9.946393e-01	1423.914791	9.138203e+00	0.019177	-3.647854e-01	-0.002521	4.575360e-03	0.000078	
478.770000	9.986537e-01	1405.733915	1.161433e+01	0.028130	-4.659593e-01	-0.003208	5.923563e-03	0.000111	
479.236000	9.980038e-01	1371.057188	1.569047e+01	0.033580	-6.210721e-01	-0.003490	7.811853e-03	0.000114	
479.703000	9.988098e-01	1413.170318	1.050620e+01	0.028288	-4.172943e-01	-0.003019	5.255168e-03	0.000110	
480.169000	9.986231e-01	1412.142037	1.068755e+01	0.025340	-4.251444e-01	-0.002839	5.362016e-03	0.000099	
480.636000	9.987563e-01	1405.312859	1.172473e+01	0.028192	-4.701421e-01	-0.003062	5.974648e-03	0.000110	
481.102000	9.924360e-01	1425.749405	9.111288e+00	0.017496	-3.684031e-01	-0.002459	4.701895e-03	0.000074	
481.569000	9.987037e-01	1425.207032	9.505251e+00	0.024434	-3.857864e-01	-0.002749	4.933988e-03	0.000098	
482.036000	9.975581e-01	1406.854989	1.141474e+01	0.023965	-4.581448e-01	-0.002715	5.831563e-03	0.000091	
482.502000	9.988963e-01	1414.901483	1.048160e+01	0.026559	-4.233569e-01	-0.002896	5.411788e-03	0.000105	
482.969000	9.986924e-01	1438.338760	7.537138e+00	0.023791	-3.050042e-01	-0.002626	3.842412e-03	0.000099	
483.436000	9.989032e-01	1400.044954	1.245861e+01	0.028004	-4.998231e-01	-0.003142	6.346890e-03	0.000112	
483.902000	9.989346e-01	1409.089066	1.121491e+01	0.029290	-4.510493e-01	-0.003139	5.743280e-03	0.000112	
484.369000	9.982807e-01	1409.145408	1.107542e+01	0.025774	-4.477091e-01	-0.002831	5.702322e-03	0.000098	
484.836000	9.991476e-01	1395.333356	1.278641e+01	0.031272	-5.086928e-01	-0.003270	6.439052e-03	0.000120	
485.303000	9.990716e-01	1413.881611	1.052037e+01	0.028615	-4.202564e-01	-0.003098	5.323863e-03	0.000115	
485.770000	9.986618e-01	1404.427439	1.183120e+01	0.026863	-4.792956e-01	-0.002941	6.118855e-03	0.000104	
486.237000	9.984396e-01	1411.935852	1.088844e+01	0.026519	-4.399265e-01	-0.002860	5.594226e-03	0.000101	
486.704000	9.981862e-01	1402.062773	1.194765e+01	0.026361	-4.755137e-01	-0.002759	6.018576e-03	0.000098	
487.171000	9.989361e-01	1388.879760	1.351070e+01	0.031397	-5.359746e-01	-0.003339	6.764285e-03	0.000119	
487.638000	9.986817e-01	1416.136905	1.029661e+01	0.025757	-4.119677e-01	-0.002847	5.214781e-03	0.000101	
488.105000	9.978124e-01	1402.271911	1.194716e+01	0.024642	-4.764814e-01	-0.003190	6.038027e-03	0.000103	
488.572000	9.989502e-01	1410.611278	1.096366e+01	0.026835	-4.410370e-01	-0.002803	5.634055e-03	0.000106	
489.039000	9.985531e-01	1416.740927	1.025498e+01	0.025730	-4.128606e-01	-0.002887	5.238441e-03	0.000102	
489.506000	9.988780e-01	1421.800302	9.642513e+00	0.026444	-3.895130e-01	-0.002811	4.967826e-03	0.000103	
489.973000	9.989481e-01	1411.306919	1.106208e+01	0.028082	-4.466917e-01	-0.002959	5.704390e-03	0.000109	
490.440000	9.993930e-01	1393.343253	1.310207e+01	0.036543	-5.225752e-01	-0.003712	6.632784e-03	0.000142	
490.908000	9.964119e-01	1417.534183	1.012035e+01	0.022863	-4.058638e-01	-0.002885	5.141965e-03	0.000090	
491.375000	9.989261e-01	1385.620604	1.406157e+01	0.031905	-5.636390e-01	-0.003483	7.180724e-03	0.000122	
491.842000	9.986216e-01	1402.469597	1.205424e+01	0.029201	-4.834063e-01	-0.003219	6.146578e-03	0.000114	
492.310000	9.986936e-01	1430.827256	8.515396e+00	0.024273	-3.414593e-01	-0.002635	4.307673e-03	0.000096	
492.777000	9.993497e-01	1399.079861	1.236614e+01	0.033931	-4.907738e-01	-0.003439	6.193498e-03	0.000130	
493.244000	9.988763e-01	1405.287128	1.186647e+01	0.029275	-4.824171e-01	-0.003090	6.213714e-03	0.000114	
493.712000	9.976746e-01	1414.305510	1.062727e+01	0.023060	-4.272030e-01	-0.002856	5.428458e-03	0.000094	
494.179000	9.987716e-01	1421.973787	9.589971e+00	0.026393	-3.853116e-01	-0.002825	4.893232e-03	0.000102	
494.647000	9.984951e-01	1415.717170	1.034309e+01	0.025497	-4.141645e-01	-0.002769	5.247177e-03	0.000098	
495.114000	9.990699e-01	1408.033317	1.130885e+01	0.028984	-4.531931e-01	-0.003044	5.748758e-03	0.000111	
495.582000	9.937830e-01	1405.555936	1.140623e+01	0.020816	-4.501117e-01	-0.002741	5.650183e-03	0.000081	
496.050000	9.981238e-01	1412.374864	1.074005e+01	0.023975	-4.303744e-01	-0.002678	5.453235e-03	0.000090	
496.517000	9.957079e-01	1419.224889	1.009077e+01	0.019557	-4.116898e-01	-0.002580	5.276144e-03	0.000082	
496.985000	9.984054e-01	1418.166471	1.006144e+01	0.025919	-4.025081e-01	-0.002978	5.101800e-03	0.000102	
497.453000	9.976357e-01	1411.775158	1.075077e+01	0.024694	-4.273635e-01	-0.002926	5.385968e-03	0.000095	
497.920000	9.982904e-01	1394.578699	1.286768e+01	0.028126	-5.120191e-01	-0.003223	6.480867e-03	0.000106	
498.388000	9.991546e-01	1405.872964	1.173096e+01	0.030202	-4.722746e-01	-0.003204	6.025698e-03	0.000120	
498.856000	9.893510e-01	1440.779293	7.448871e+00	0.016666	-3.041750e-01	-0.002355	3.893862e-03	0.000069	
499.324000	9.985969e-01	1415.687667	1.029204e+01	0.026799	-4.123150e-01	-0.002879	5.217732e-03	0.000102	
499.792000	9.988267e-01	1409.746399	1.104077e+01	0.027318	-4.404461e-01	-0.002990	5.583470e-03	0.000106	
500.260000	9.987375e-01	1402.637288	1.194416e+01	0.026601	-4.781660e-01	-0.002806	6.084215e-03	0.000101	
500.728000	9.989478e-01	1403.528304	1.188419e+01	0.029545	-4.740830e-01	-0.003156	5.998169e-03	0.000114	
501.196000	9.834638e-01	1427.636415	8.862360e+00	0.011529	-3.553812e-01	-0.002439	4.503755e-03	0.000055	
501.664000	9.932764e-01	1417.750967	1.001553e+01	0.021323	-3.970288e-01	-0.002862	4.986035e-03	0.000084	
502.132000	9.967221e-01	1407.252507	1.128480e+01	0.023258	-4.505191e-01	-0.002645	5.713467e-03	0.000085	
502.600000	9.985557e-01	1400.430228	1.224947e+01	0.026568	-4.909092e-01	-0.002984	6.251261e-03	0.000103	
503.068000	9.959265e-01	1351.894568	1.791334e+01	0.032480	-7.039059e-01	-0.003532	8.845676e-03	0.000104	
503.536000	9.990267e-01	1411.466438	1.092041e+01	0.027646	-4.408513e-01	-0.002996	5.596564e-03	0.000110	
504.004000	9.984536e-01	1400.181461	1.229592e+01	0.028304	-4.949851e-01	-0.003166	6.288825e-03	0.000109	
504.472000	9.977271e-01	1418.175169	1.006673e+01	0.022579	-4.032390e-01	-0.002720	5.117162e-03	0.000091	
504.941000	9.990482e-01	1404.763499	1.184929e+01	0.029959	-4.815149e-01	-0.003253	6.152770e-03	0.000120	
505.409000	9.976084e-01	1420.535280	9.688444e+00	0.024295	-3.878456e-01	-0.002858	4.921685e-03	0.000095	
505.877000	9.988531e-01	1408.987766	1.112112e+01	0.028132	-4.452900e-01	-0.003080	5.659292e-03	0.000109	
506.346000	9.984173e-01	1416.927410	1.016415e+01	0.026210	-4.059643e-01	-0.002933	5.125720e-03	0.000101	
506.814000	9.982487e-01	1407.821842	1.130057e+01	0.025156	-4.496805e-01	-0.002950	5.679856e-03	0.000103	
507.282000	9.979156e-01	1418.954963	9.981489e+00	0.022729	-4.010629e-01	-0.002743	5.094371e-03	0.000093	
507.751000	9.911623e-01	1417.779015	1.016102e+01	0.018533	-4.101526e-01	-0.002494	5.234268e-03	0.000072	
508.219000	9.984678e-01	1418.918916	1.007897e+01	0.025958	-4.059384e-01	-0.002874	5.158826e-03	0.000100	
508.688000	9.981378e-01	1412.493213	1.063245e+01	0.024366	-4.193217e-01	-0.002622	5.252006e-03	0.000091	
509.156000	9.784552e-01	1407.237316	1.145396e+01	0.018480	-4.635137e-01	-0.002763	5.893583e-03	0.000075	
509.625000	9.349784e-01	1440.320790	7.461197e+00	0.010966	-3.065644e-01	-0.001989	3.947784e-03	0.000048	
510.094000	9.977162e-01	1416.698344	1.018195e+01	0.024613	-4.085223e-01	-0.002792	5.184616e-03	0.000091	
510.562000	9.975472e-01	1403.685284	1.193312e+01	0.024559	-4.819910e-01	-0.003299	6.160264e-03	0.000107	
511.031000	9.990161e-01	1385.261514	1.395983e+01	0.032679	-5.533641e-01	-0.003368	6.988202e-03	0.000123	
511.500000	9.987027e-01	1397.534828	1.239969e+01	0.028961	-4.929822e-01	-0.003107	6.227595e-03	0.000110	
511.968000	9.985263e-01	1408.551164	1.116585e+01	0.027071	-4.448395e-01	-0.003071	5.577787e-03	0.000105	
512.437000	9.989697e-01	1408.899980	1.114584e+01	0.028669	-4.444540e-01	-0.002992	5.630098e-03	0.000109	
512.906000	9.989985e-01	1409.128410	1.105763e+01	0.029864	-4.446548e-01	-0.003120	5.642569e-03	0.000113	
513.375000	9.965831e-01	1412.155017	1.069898e+01	0.021237	-4.256269e-01	-0.002796	5.364404e-03	0.000088	
513.844000	9.969550e-01	1436.989763	7.786034e+00	0.020135	-3.157370e-01	-0.002440	4.018711e-03	0.000081	
514.313000	9.990715e-01	1409.291266	1.120922e+01	0.029698	-4.494152e-01	-0.003094	5.707638e-03	0.000116	
514.782000	9.989912e-01	1410.764498	1.107865e+01	0.029317	-4.463161e-01	-0.003171	5.680829e-03	0.000116	
515.251000	9.933732e-01	1421.926572	9.557088e+00	0.018059	-3.845011e-01	-0.002503	4.885321e-03	0.000077	
515.720000	9.967243e-01	1423.399812	9.451774e+00	0.020524	-3.806920e-01	-0.002563	4.834437e-03	0.000083	
516.189000	9.992229e-01	1396.252521	1.271510e+01	0.031012	-5.099737e-01	-0.003232	6.475897e-03	0.000121	
516.658000	9.950641e-01	1427.923477	9.016996e+00	0.019127	-3.647763e-01	-0.002496	4.659273e-03	0.000078	
517.127000	9.986778e-01	1426.196983	8.957840e+00	0.023736	-3.569809e-01	-0.002532	4.501933e-03	0.000092	
517.596000	9.975580e-01	1416.809928	1.019681e+01	0.022771	-4.074100e-01	-0.002693	5.158571e-03	0.000091	
518.065000	9.984970e-01	1399.131803	1.238762e+01	0.027397	-4.999896e-01	-0.003040	6.379964e-03	0.000105	
518.534000	9.983670e-01	1412.116532	1.058988e+01	0.027030	-4.192858e-01	-0.003038	5.262927e-03	0.000105	
519.004000	9.874635e-01	1418.132976	1.008095e+01	0.017135	-4.041765e-01	-0.003048	5.111510e-03	0.000087	
519.473000	9.982351e-01	1411.915829	1.071031e+01	0.025095	-4.246875e-01	-0.003260	5.326640e-03	0.000109	
519.942000	9.988715e-01	1417.448559	1.021616e+01	0.028742	-4.094378e-01	-0.003034	5.185654e-03	0.000110	
520.412000	9.987319e-01	1412.082208	1.081762e+01	0.026413	-4.326313e-01	-0.002831	5.483775e-03	0.000101	
520.881000	9.984122e-01	1425.667508	8.934459e+00	0.023426	-3.543791e-01	-0.002534	4.442450e-03	0.000089	
521.350000	9.856923e-01	1415.099459	1.027130e+01	0.021065	-4.106556e-01	-0.002795	5.167265e-03	0.000082	
521.820000	9.979766e-01	1413.711658	1.057537e+01	0.023886	-4.232874e-01	-0.002739	5.375342e-03	0.000093	
522.289000	9.963383e-01	1417.089189	1.007916e+01	0.021955	-4.023340e-01	-0.002667	5.086807e-03	0.000084	
522.759000	9.987650e-01	1419.172482	9.679541e+00	0.026746	-3.820160e-01	-0.002813	4.776058e-03	0.000103	
523.228000	9.947674e-01	1440.443467	7.263684e+00	0.018297	-2.927652e-01	-0.002356	3.708980e-03	0.000073	
523.698000	9.981110e-01	1407.071085	1.132958e+01	0.024938	-4.533451e-01	-0.002745	5.755209e-03	0.000096	
524.168000	9.733617e-01	1427.576904	8.858312e+00	0.011966	-3.555058e-01	-0.002624	4.494075e-03	0.000064	
524.637000	9.984394e-01	1398.652131	1.234163e+01	0.026797	-4.909525e-01	-0.003001	6.215043e-03	0.000102	
525.107000	9.991784e-01	1397.482449	1.274584e+01	0.031859	-5.125629e-01	-0.003353	6.545149e-03	0.000124	
525.577000	9.990566e-01	1407.308106	1.125728e+01	0.031006	-4.460082e-01	-0.003245	5.606243e-03	0.000118	
526.046000	9.987567e-01	1418.048320	1.006636e+01	0.024925	-4.036455e-01	-0.002664	5.115028e-03	0.000096	
526.516000	9.986087e-01	1408.387321	1.125969e+01	0.026663	-4.529013e-01	-0.002822	5.769766e-03	0.000100	
526.986000	9.990332e-01	1407.158430	1.145549e+01	0.028604	-4.607584e-01	-0.003031	5.874357e-03	0.000110	
527.456000	9.981828e-01	1402.744274	1.172327e+01	0.026795	-4.634358e-01	-0.002965	5.827880e-03	0.000100	
527.926000	9.987085e-01	1403.300411	1.169025e+01	0.027945	-4.600465e-01	-0.003288	5.760105e-03	0.000114	
528.396000	9.991562e-01	1403.875259	1.169194e+01	0.031491	-4.670535e-01	-0.003368	5.919332e-03	0.000122	
528.866000	9.987669e-01	1413.038506	1.069932e+01	0.027847	-4.306599e-01	-0.002966	5.494496e-03	0.000107	
529.336000	9.371186e-01	1429.589250	8.621538e+00	0.014598	-3.465433e-01	-0.002255	4.413460e-03	0.000058	
529.806000	9.991537e-01	1406.464981	1.153324e+01	0.028786	-4.654755e-01	-0.003024	5.940140e-03	0.000115	
530.276000	9.985750e-01	1408.700562	1.106149e+01	0.025762	-4.376029e-01	-0.002878	5.499251e-03	0.000100	
530.746000	9.989064e-01	1406.276154	1.141558e+01	0.029159	-4.536777e-01	-0.003133	5.724797e-03	0.000112	
531.216000	9.984280e-01	1407.788850	1.128117e+01	0.027632	-4.510566e-01	-0.003173	5.699964e-03	0.000107	
531.686000	9.985977e-01	1408.578708	1.105450e+01	0.027215	-4.361575e-01	-0.003005	5.468871e-03	0.000104	
532.156000	9.976320e-01	1404.267122	1.161565e+01	0.023721	-4.622532e-01	-0.002823	5.849494e-03	0.000094	
532.626000	9.987768e-01	1419.378038	9.777237e+00	0.027134	-3.879086e-01	-0.002906	4.873624e-03	0.000105	
533.097000	9.989748e-01	1404.754135	1.165477e+01	0.029115	-4.642071e-01	-0.003182	5.874635e-03	0.000113	
533.567000	9.983772e-01	1428.600758	8.834257e+00	0.023899	-3.560004e-01	-0.002554	4.526227e-03	0.000092	
534.037000	9.989657e-01	1424.923546	9.138232e+00	0.026943	-3.657404e-01	-0.002851	4.613946e-03	0.000106	
534.508000	9.982297e-01	1415.806702	1.044335e+01	0.024064	-4.218786e-01	-0.002788	5.387787e-03	0.000096	
534.978000	9.990196e-01	1412.020313	1.062797e+01	0.025091	-4.256541e-01	-0.002769	5.317645e-03	0.000105	
535.448000	9.987226e-01	1412.243507	1.067285e+01	0.025798	-4.235666e-01	-0.002791	5.333145e-03	0.000099	
535.919000	9.989248e-01	1407.850677	1.132704e+01	0.027403	-4.536972e-01	-0.002905	5.755555e-03	0.000105	
536.389000	9.870232e-01	1444.538843	6.755237e+00	0.016730	-2.705792e-01	-0.002406	3.387709e-03	0.000068	
536.860000	9.991156e-01	1400.858182	1.221020e+01	0.030426	-4.886550e-01	-0.003188	6.204034e-03	0.000119	
537.330000	9.974531e-01	1416.025403	1.052431e+01	0.023072	-4.285345e-01	-0.002689	5.523501e-03	0.000090	
537.801000	9.990815e-01	1409.001914	1.129275e+01	0.027110	-4.543914e-01	-0.002866	5.795989e-03	0.000107	
538.272000	9.986222e-01	1412.453896	1.068788e+01	0.026146	-4.263896e-01	-0.002857	5.387636e-03	0.000102	
538.742000	9.991370e-01	1389.146430	1.352866e+01	0.033788	-5.370854e-01	-0.003411	6.788923e-03	0.000127	
539.213000	9.990728e-01	1394.589262	1.286510e+01	0.030980	-5.139035e-01	-0.003132	6.519231e-03	0.000116	
539.684000	9.988303e-01	1419.101619	9.960668e+00	0.027086	-3.964076e-01	-0.002959	4.986535e-03	0.000106	
540.154000	9.970273e-01	1414.741524	1.034992e+01	0.022386	-4.101455e-01	-0.003015	5.155816e-03	0.000096	
540.625000	9.987291e-01	1416.071806	1.032004e+01	0.025988	-4.177273e-01	-0.002830	5.340602e-03	0.000102	
541.096000	9.984418e-01	1420.679752	9.537416e+00	0.025641	-3.783878e-01	-0.002769	4.746197e-03	0.000098	
541.567000	9.986357e-01	1423.238796	9.486626e+00	0.025761	-3.847396e-01	-0.002814	4.916660e-03	0.000101	
542.038000	9.990942e-01	1386.500741	1.395996e+01	0.031937	-5.557844e-01	-0.003379	7.042458e-03	0.000123	
542.509000	9.985740e-01	1418.483784	1.003836e+01	0.024820	-4.037869e-01	-0.002690	5.152738e-03	0.000097	
542.979000	9.988651e-01	1408.277955	1.124575e+01	0.027402	-4.490051e-01	-0.002879	5.677098e-03	0.000104	
543.450000	9.983155e-01	1411.810209	1.094851e+01	0.025767	-4.415514e-01	-0.002848	5.632689e-03	0.000100	
543.921000	9.988158e-01	1398.581626	1.245589e+01	0.028954	-4.995763e-01	-0.003094	6.354994e-03	0.000110	
544.393000	9.982416e-01	1396.195141	1.261289e+01	0.028082	-4.983211e-01	-0.003371	6.272653e-03	0.000112	
544.864000	9.970396e-01	1422.457152	9.525435e+00	0.021158	-3.796388e-01	-0.002892	4.772377e-03	0.000092	
545.335000	9.984910e-01	1417.338551	1.020998e+01	0.025133	-4.097348e-01	-0.002754	5.198773e-03	0.000098	
545.806000	9.989561e-01	1404.654015	1.181036e+01	0.028928	-4.755559e-01	-0.003074	6.070854e-03	0.000112	
546.277000	9.983388e-01	1411.313336	1.087666e+01	0.024861	-4.343393e-01	-0.002690	5.509476e-03	0.000094	
546.748000	9.982139e-01	1417.183520	1.020259e+01	0.022946	-4.088670e-01	-0.002749	5.192831e-03	0.000094	
547.219000	9.835251e-01	1592.274715	-1.114561e+01	0.009655	4.265898e-01	-0.001766	-5.336275e-03	0.000082	
547.691000	9.987824e-01	1419.578917	9.930696e+00	0.026375	-3.997438e-01	-0.002860	5.079338e-03	0.000102	
548.162000	9.990890e-01	1408.315092	1.129057e+01	0.029485	-4.534666e-01	-0.003116	5.752738e-03	0.000114	
548.633000	9.989851e-01	1403.481479	1.185899e+01	0.028488	-4.750081e-01	-0.003083	6.050178e-03	0.000111	
549.105000	9.961013e-01	1418.434195	1.002536e+01	0.020035	-4.037007e-01	-0.002462	5.130867e-03	0.000078	
549.576000	9.989625e-01	1390.754495	1.357392e+01	0.031852	-5.464711e-01	-0.003303	6.961775e-03	0.000121	
550.048000	9.983943e-01	1414.631674	1.060268e+01	0.024258	-4.277059e-01	-0.002715	5.461276e-03	0.000095	
550.519000	9.978971e-01	1422.901380	9.380891e+00	0.023138	-3.707690e-01	-0.002584	4.633132e-03	0.000087	
550.991000	9.988458e-01	1413.648786	1.065564e+01	0.025740	-4.280240e-01	-0.002893	5.432770e-03	0.000104	
551.462000	9.991577e-01	1409.702141	1.121497e+01	0.029258	-4.526636e-01	-0.003038	5.789808e-03	0.000114	
551.934000	9.989218e-01	1416.644159	1.028024e+01	0.027697	-4.136491e-01	-0.003030	5.273508e-03	0.000108	
552.405000	9.981519e-01	1413.257498	1.072437e+01	0.023851	-4.317901e-01	-0.002697	5.487017e-03	0.000091	
552.877000	9.989403e-01	1401.816225	1.196922e+01	0.028166	-4.767780e-01	-0.003119	6.014076e-03	0.000111	
553.349000	9.989794e-01	1402.924298	1.188691e+01	0.028207	-4.738114e-01	-0.003041	5.998918e-03	0.000111	
553.820000	9.956336e-01	1418.288971	1.000501e+01	0.020632	-4.031618e-01	-0.002698	5.085439e-03	0.000084	
554.292000	9.983837e-01	1410.101186	1.108854e+01	0.026700	-4.466190e-01	-0.003030	5.661742e-03	0.000104	
554.764000	9.989064e-01	1399.004038	1.229997e+01	0.029317	-4.895273e-01	-0.003078	6.196096e-03	0.000111	
555.236000	9.814837e-01	1430.303056	8.494205e+00	0.010130	-3.423986e-01	-0.002655	4.332310e-03	0.000063	
555.708000	9.990436e-01	1395.506581	1.280492e+01	0.031590	-5.097066e-01	-0.003308	6.447543e-03	0.000122	
556.179000	9.989237e-01	1414.940283	1.055777e+01	0.025657	-4.259930e-01	-0.002761	5.423956e-03	0.000103	
556.651000	9.992362e-01	1409.804325	1.094904e+01	0.029689	-4.378220e-01	-0.003022	5.546922e-03	0.000115	
557.123000	9.985135e-01	1421.144393	9.660291e+00	0.025494	-3.887819e-01	-0.002713	4.945443e-03	0.000100	
557.595000	9.989866e-01	1415.524531	1.038875e+01	0.027798	-4.154202e-01	-0.002969	5.248802e-03	0.000109	
558.067000	9.984025e-01	1410.243425	1.101063e+01	0.024531	-4.432004e-01	-0.002843	5.657239e-03	0.000099	
558.539000	9.956954e-01	1420.400793	9.754162e+00	0.019423	-3.947185e-01	-0.002332	5.042317e-03	0.000076	
559.011000	9.978116e-01	1426.262051	8.993014e+00	0.022293	-3.586398e-01	-0.002574	4.521630e-03	0.000087	
559.483000	9.992831e-01	1414.209627	1.046033e+01	0.031347	-4.161289e-01	-0.003201	5.233436e-03	0.000123	
559.956000	9.985485e-01	1420.273026	9.641296e+00	0.025639	-3.853655e-01	-0.002737	4.873331e-03	0.000099	
560.428000	9.985689e-01	1399.335611	1.220236e+01	0.026909	-4.835144e-01	-0.002885	6.094301e-03	0.000102	
560.900000	9.981903e-01	1416.540163	1.037227e+01	0.024396	-4.186490e-01	-0.002690	5.344196e-03	0.000094	
561.372000	9.988865e-01	1415.377623	1.032292e+01	0.028176	-4.130508e-01	-0.003059	5.213804e-03	0.000109	
561.845000	9.971137e-01	1415.004069	1.041338e+01	0.020103	-4.183703e-01	-0.002602	5.327148e-03	0.000087	
562.317000	9.989682e-01	1417.368281	1.008137e+01	0.028138	-4.021293e-01	-0.002904	5.091564e-03	0.000107	
562.789000	9.981393e-01	1404.602033	1.166335e+01	0.025609	-4.651216e-01	-0.002825	5.890512e-03	0.000097	
563.262000	9.985354e-01	1408.981155	1.118480e+01	0.027716	-4.481038e-01	-0.003070	5.680618e-03	0.000106	
563.734000	9.988613e-01	1418.664245	1.010548e+01	0.026344	-4.047030e-01	-0.002836	5.120623e-03	0.000103	
564.206000	9.811088e-01	1438.104316	7.692476e+00	0.009040	-3.142278e-01	-0.001694	4.027691e-03	0.000034	
564.679000	9.964678e-01	1417.295056	1.016337e+01	0.020753	-4.079935e-01	-0.002934	5.172805e-03	0.000093	
565.151000	9.767372e-01	1430.128527	8.513804e+00	0.015145	-3.459550e-01	-0.002408	4.421253e-03	0.000067	
565.624000	9.978770e-01	1407.684736	1.124884e+01	0.024532	-4.494416e-01	-0.003034	5.683623e-03	0.000102	
566.096000	9.991006e-01	1401.468627	1.186544e+01	0.031586	-4.692321e-01	-0.003226	5.910401e-03	0.000120	
566.569000	9.991854e-01	1405.633962	1.167678e+01	0.030042	-4.688861e-01	-0.003177	5.971249e-03	0.000119	
567.042000	9.987729e-01	1408.603447	1.134743e+01	0.027834	-4.587444e-01	-0.003012	5.868077e-03	0.000109	
567.514000	9.986810e-01	1413.745193	1.055168e+01	0.026961	-4.242466e-01	-0.002927	5.405864e-03	0.000105	
567.987000	9.984969e-01	1403.773893	1.178661e+01	0.026938	-4.722736e-01	-0.002933	5.993443e-03	0.000103	
568.460000	9.980957e-01	1415.507092	1.029455e+01	0.024316	-4.115925e-01	-0.002871	5.201192e-03	0.000095	
568.933000	9.967622e-01	1412.366031	1.074972e+01	0.022415	-4.277929e-01	-0.002704	5.396118e-03	0.000089	
569.405000	9.981859e-01	1402.732099	1.194443e+01	0.025867	-4.806239e-01	-0.002988	6.113154e-03	0.000102	
569.878000	9.963701e-01	1428.283639	8.866724e+00	0.019328	-3.586826e-01	-0.002403	4.560308e-03	0.000077	
570.351000	9.971028e-01	1423.382067	9.407562e+00	0.020873	-3.766718e-01	-0.002735	4.767018e-03	0.000090	
570.824000	9.987627e-01	1423.109473	9.425325e+00	0.025828	-3.758971e-01	-0.002790	4.732846e-03	0.000102	
571.297000	9.984278e-01	1408.406613	1.113762e+01	0.027969	-4.449866e-01	-0.002946	5.653577e-03	0.000106	
571.770000	9.988816e-01	1430.257659	8.716868e+00	0.024304	-3.565509e-01	-0.002650	4.588197e-03	0.000100	
572.243000	9.981678e-01	1417.726215	1.002119e+01	0.024567	-4.002838e-01	-0.002874	5.058585e-03	0.000097	
572.716000	9.988183e-01	1396.096284	1.263156e+01	0.030047	-5.010894e-01	-0.003183	6.323947e-03	0.000113	
573.189000	9.981795e-01	1406.999193	1.152798e+01	0.024808	-4.668700e-01	-0.002879	5.992752e-03	0.000100	
573.662000	9.989451e-01	1388.521982	1.357731e+01	0.030763	-5.385833e-01	-0.003237	6.790121e-03	0.000115	
574.135000	9.988439e-01	1415.986809	1.041018e+01	0.026541	-4.212829e-01	-0.002884	5.385819e-03	0.000104	
574.608000	9.990068e-01	1402.777626	1.189933e+01	0.029817	-4.754593e-01	-0.003131	6.022560e-03	0.000114	
575.082000	9.991137e-01	1407.281413	1.117169e+01	0.029435	-4.401957e-01	-0.003091	5.530412e-03	0.000117	
575.555000	9.990123e-01	1405.951342	1.155339e+01	0.027684	-4.640394e-01	-0.003013	5.910330e-03	0.000110	
576.028000	9.951830e-01	1518.134166	-1.633472e+00	0.021450	4.140354e-02	-0.003358	-3.962861e-04	0.000116	
576.501000	9.978558e-01	1405.675839	1.153662e+01	0.024055	-4.586053e-01	-0.002859	5.783720e-03	0.000096	
576.975000	9.991294e-01	1404.308658	1.171544e+01	0.030495	-4.633393e-01	-0.003115	5.815989e-03	0.000116	
577.448000	9.947220e-01	1420.879428	9.433740e+00	0.021163	-3.702078e-01	-0.002775	4.611689e-03	0.000084	
577.922000	9.938579e-01	1405.991011	1.161624e+01	0.027731	-4.678045e-01	-0.003268	5.965806e-03	0.000109	
578.395000	9.945576e-01	1423.413304	9.291467e+00	0.019514	-3.684281e-01	-0.002320	4.615224e-03	0.000071	
578.869000	9.987136e-01	1399.645687	1.228555e+01	0.026641	-4.888737e-01	-0.002879	6.172151e-03	0.000102	
579.342000	9.963584e-01	1413.213141	1.043336e+01	0.023225	-4.136381e-01	-0.002739	5.196466e-03	0.000086	
579.816000	9.982078e-01	1422.739666	9.524837e+00	0.023733	-3.817183e-01	-0.002705	4.837619e-03	0.000093	
580.289000	9.985182e-01	1386.443975	1.372005e+01	0.029987	-5.421906e-01	-0.003428	6.818626e-03	0.000118	
580.763000	9.986905e-01	1416.704274	1.026886e+01	0.025454	-4.138466e-01	-0.002736	5.279147e-03	0.000098	
581.236000	9.981041e-01	1411.751476	1.079064e+01	0.025145	-4.315685e-01	-0.002867	5.448526e-03	0.000099	
581.710000	9.989097e-01	1408.217204	1.126749e+01	0.029518	-4.549766e-01	-0.003184	5.810353e-03	0.000114	
582.184000	9.987802e-01	1414.515329	1.058139e+01	0.028826	-4.268636e-01	-0.003076	5.448662e-03	0.000112	
582.657000	9.399266e-01	1366.350201	1.616338e+01	0.023827	-6.355114e-01	-0.003301	7.962450e-03	0.000077	
583.131000	9.949020e-01	1417.511527	1.014970e+01	0.020352	-4.078701e-01	-0.002698	5.180578e-03	0.000083	
583.605000	9.955102e-01	1413.756159	1.055681e+01	0.020198	-4.228520e-01	-0.002624	5.365459e-03	0.000082	
584.079000	9.953332e-01	1409.843877	1.106015e+01	0.021346	-4.433194e-01	-0.002748	5.628975e-03	0.000085	
584.553000	9.989730e-01	1400.960615	1.210308e+01	0.031074	-4.804290e-01	-0.003273	6.060243e-03	0.000119	
585.027000	9.990819e-01	1404.123085	1.164793e+01	0.029221	-4.618550e-01	-0.003143	5.807658e-03	0.000115	
585.501000	9.984169e-01	1414.067835	1.043214e+01	0.025548	-4.136630e-01	-0.002861	5.207258e-03	0.000101	
585.975000	9.982462e-01	1404.336293	1.169362e+01	0.025195	-4.677021e-01	-0.002717	5.925706e-03	0.000097	
586.449000	9.989263e-01	1404.385914	1.162259e+01	0.029323	-4.610218e-01	-0.003111	5.812106e-03	0.000114	
586.923000	9.989938e-01	1406.521569	1.140189e+01	0.029115	-4.539687e-01	-0.003110	5.735031e-03	0.000114	
587.397000	9.988996e-01	1405.342573	1.151881e+01	0.031500	-4.566783e-01	-0.003328	5.742986e-03	0.000120	
587.871000	9.992164e-01	1410.531336	1.099783e+01	0.027964	-4.401575e-01	-0.002984	5.578448e-03	0.000106	
588.345000	9.984015e-01	1415.720099	1.047686e+01	0.024428	-4.236368e-01	-0.002640	5.413910e-03	0.000091	
588.819000	9.946400e-01	1426.465103	9.022231e+00	0.020260	-3.628688e-01	-0.002757	4.605388e-03	0.000085	
589.293000	9.972913e-01	1417.792149	1.001077e+01	0.023670	-4.001818e-01	-0.002735	5.062267e-03	0.000089	
589.768000	9.987363e-01	1420.668861	9.608330e+00	0.025968	-3.818270e-01	-0.002821	4.801986e-03	0.000102	
590.242000	9.983792e-01	1410.178242	1.106690e+01	0.025232	-4.451557e-01	-0.002774	5.670533e-03	0.000096	
590.716000	9.990859e-01	1403.429887	1.187826e+01	0.030358	-4.766006e-01	-0.003161	6.071774e-03	0.000116	
591.190000	9.988893e-01	1401.525063	1.199678e+01	0.030025	-4.789503e-01	-0.003292	6.073482e-03	0.000116	
591.665000	9.961060e-01	1429.214468	8.755805e+00	0.020537	-3.522146e-01	-0.002789	4.415295e-03	0.000087	
592.139000	9.988004e-01	1410.429680	1.103187e+01	0.027269	-4.424201e-01	-0.003026	5.616516e-03	0.000107	
592.614000	9.964505e-01	1409.522845	1.113789e+01	0.021364	-4.445774e-01	-0.002760	5.621249e-03	0.000086	
593.088000	9.992408e-01	1409.301843	1.115188e+01	0.030504	-4.473214e-01	-0.003080	5.659914e-03	0.000116	
593.563000	9.988948e-01	1404.981705	1.165837e+01	0.028802	-4.650104e-01	-0.003008	5.887307e-03	0.000109	
594.037000	9.977831e-01	1425.943650	9.097423e+00	0.020594	-3.665963e-01	-0.002373	4.659066e-03	0.000081	
594.512000	9.948080e-01	1421.174470	9.731267e+00	0.019783	-3.927436e-01	-0.002449	5.006339e-03	0.000074	
594.986000	9.888331e-01	1445.973720	6.611365e+00	0.014971	-2.642178e-01	-0.002160	3.306963e-03	0.000064	
595.461000	9.937613e-01	1455.144040	5.635653e+00	0.013881	-2.321628e-01	-0.001970	2.990066e-03	0.000065	
595.936000	9.985471e-01	1409.108370	1.101720e+01	0.026286	-4.343361e-01	-0.002999	5.433503e-03	0.000103	
596.410000	9.959572e-01	1418.241941	9.930454e+00	0.021959	-3.966169e-01	-0.002743	4.988296e-03	0.000084	
596.885000	9.976822e-01	1419.871646	9.714650e+00	0.023832	-3.889080e-01	-0.002961	4.933444e-03	0.000095	
597.360000	9.987274e-01	1400.847244	1.209169e+01	0.028154	-4.817812e-01	-0.002906	6.104911e-03	0.000107	
597.835000	9.991702e-01	1392.549339	1.296693e+01	0.034611	-5.128008e-01	-0.003630	6.440868e-03	0.000133	
598.309000	9.990989e-01	1399.684751	1.246484e+01	0.029592	-4.975236e-01	-0.003110	6.307388e-03	0.000115	
598.784000	9.983914e-01	1407.440586	1.139213e+01	0.024915	-4.571268e-01	-0.002786	5.822515e-03	0.000098	
599.259000	9.989296e-01	1402.942928	1.179790e+01	0.028950	-4.673808e-01	-0.002981	5.877296e-03	0.000109	
599.734000	9.992504e-01	1400.863206	1.203662e+01	0.032716	-4.769596e-01	-0.003389	6.000331e-03	0.000125	
600.209000	9.980892e-01	1419.331228	9.929317e+00	0.024708	-3.977964e-01	-0.002720	5.037510e-03	0.000094	
600.684000	9.988259e-01	1413.114402	1.066250e+01	0.024663	-4.266372e-01	-0.002699	5.402844e-03	0.000099	
601.159000	9.917668e-01	1416.816746	1.013894e+01	0.020630	-4.047029e-01	-0.002742	5.116293e-03	0.000080	
601.634000	9.989866e-01	1409.805103	1.113735e+01	0.029193	-4.464038e-01	-0.003035	5.668121e-03	0.000112	
602.109000	9.992685e-01	1397.082612	1.262841e+01	0.032717	-5.033614e-01	-0.003450	6.372334e-03	0.000127	
602.584000	9.989277e-01	1423.962762	9.454584e+00	0.026563	-3.803123e-01	-0.002875	4.832127e-03	0.000105	
603.060000	9.989908e-01	1408.971449	1.120837e+01	0.028307	-4.477524e-01	-0.002976	5.662713e-03	0.000110	
603.535000	8.923608e-01	1438.906318	7.483015e+00	0.010565	-3.048051e-01	-0.001685	3.898034e-03	0.000040	
604.010000	9.980877e-01	1396.916302	1.263628e+01	0.026898	-5.069946e-01	-0.003209	6.466137e-03	0.000107	
604.485000	9.991494e-01	1400.950844	1.198455e+01	0.033055	-4.729209e-01	-0.003512	5.923307e-03	0.000125	
604.961000	9.985930e-01	1416.604100	1.017377e+01	0.027206	-4.038619e-01	-0.002940	5.082755e-03	0.000104	
605.436000	9.957962e-01	1417.245343	1.015674e+01	0.022016	-4.044296e-01	-0.002674	5.096772e-03	0.000084	
605.911000	9.975563e-01	1421.335656	9.633755e+00	0.023794	-3.862309e-01	-0.002771	4.891193e-03	0.000092	
606.387000	9.983007e-01	1407.165027	1.145072e+01	0.027227	-4.613306e-01	-0.003103	5.893359e-03	0.000106	
606.862000	9.967800e-01	1406.403307	1.158199e+01	0.020309	-4.689041e-01	-0.002315	6.016952e-03	0.000078	
607.338000	9.985493e-01	1427.002922	9.050138e+00	0.023697	-3.669021e-01	-0.002655	4.686662e-03	0.000096	
607.813000	9.989692e-01	1405.386917	1.169885e+01	0.028418	-4.683949e-01	-0.003057	5.942664e-03	0.000110	
608.289000	9.758207e-01	1420.798289	9.544604e+00	0.015987	-3.832933e-01	-0.002394	4.852469e-03	0.000066	
608.764000	9.289956e-01	1438.839283	7.438488e+00	0.012770	-2.974370e-01	-0.002123	3.748977e-03	0.000054	
609.240000	9.985717e-01	1408.229744	1.108667e+01	0.027150	-4.390204e-01	-0.002861	5.525865e-03	0.000103	
609.715000	9.979175e-01	1424.749033	9.364246e+00	0.023365	-3.767050e-01	-0.002762	4.785795e-03	0.000094	
610.191000	9.984975e-01	1404.365456	1.158191e+01	0.028288	-4.601780e-01	-0.003056	5.783140e-03	0.000106	
610.667000	9.941368e-01	1428.071334	8.707561e+00	0.018573	-3.486365e-01	-0.002293	4.401084e-03	0.000070	
611.143000	9.969468e-01	1444.653866	6.763211e+00	0.018508	-2.727849e-01	-0.002472	3.452147e-03	0.000085	
611.618000	9.992120e-01	1401.860136	1.186775e+01	0.031272	-4.705146e-01	-0.003235	5.932635e-03	0.000120	
612.094000	9.988740e-01	1399.511803	1.237981e+01	0.027946	-4.987361e-01	-0.002932	6.381445e-03	0.000107	
612.570000	9.988234e-01	1406.512075	1.139720e+01	0.028703	-4.519572e-01	-0.003107	5.697837e-03	0.000110	
613.046000	9.992630e-01	1385.470641	1.385854e+01	0.033482	-5.455651e-01	-0.003419	6.833775e-03	0.000126	
613.522000	9.990037e-01	1398.127811	1.241539e+01	0.030955	-4.934382e-01	-0.003240	6.240095e-03	0.000116	
613.998000	9.935290e-01	1427.973450	8.907694e+00	0.018681	-3.604533e-01	-0.002477	4.586239e-03	0.000075	
614.474000	9.986199e-01	1418.998892	9.932486e+00	0.025243	-3.978260e-01	-0.002957	5.045915e-03	0.000104	
614.950000	9.980849e-01	1418.014656	9.981636e+00	0.002555	-4.016699e-01	-0.003036	5.127444e-03	0.000060	
615.426000	9.986729e-01	1407.417971	1.105922e+01	0.027126	-4.324137e-01	-0.002889	5.379936e-03	0.000101	
615.902000	9.979576e-01	1412.536641	1.072450e+01	0.022508	-4.279731e-01	-0.002614	5.423299e-03	0.000089	
616.378000	9.988362e-01	1412.636790	1.072265e+01	0.027036	-4.284649e-01	-0.003062	5.414332e-03	0.000109	
616.854000	9.989548e-01	1410.885280	1.093371e+01	0.027452	-4.361112e-01	-0.002886	5.511529e-03	0.000107	
617.330000	9.987424e-01	1431.718380	8.454530e+00	0.026110	-3.426138e-01	-0.002953	4.355703e-03	0.000104	
617.806000	9.981876e-01	1411.120277	1.081345e+01	0.025758	-4.272648e-01	-0.002922	5.362495e-03	0.000098	
618.282000	9.993225e-01	1393.714643	1.291822e+01	0.034230	-5.105426e-01	-0.003512	6.422422e-03	0.000131	
618.759000	9.992544e-01	1391.216230	1.352022e+01	0.034406	-5.443391e-01	-0.003593	6.966888e-03	0.000134	
619.235000	9.989359e-01	1413.453400	1.058889e+01	0.029581	-4.233231e-01	-0.003107	5.366889e-03	0.000114	
619.711000	9.989972e-01	1415.629562	1.027272e+01	0.027720	-4.121886e-01	-0.002854	5.225524e-03	0.000105	
620.188000	9.843127e-01	1414.673116	1.053559e+01	0.015279	-4.208909e-01	-0.002880	5.319462e-03	0.000082	
620.664000	9.986267e-01	1420.812727	9.739359e+00	0.024693	-3.908127e-01	-0.002639	4.958638e-03	0.000094	
621.141000	9.990497e-01	1405.125662	1.163994e+01	0.028807	-4.668239e-01	-0.002986	5.944520e-03	0.000111	
621.617000	9.974320e-01	1413.838720	1.036477e+01	0.023198	-4.077063e-01	-0.003096	5.095446e-03	0.000100	
622.094000	9.989240e-01	1407.983540	1.128069e+01	0.028574	-4.497242e-01	-0.002930	5.701759e-03	0.000108	
622.570000	9.899953e-01	1427.036714	8.956359e+00	0.016289	-3.626202e-01	-0.002415	4.631848e-03	0.000071	
623.047000	9.987673e-01	1425.502945	9.201025e+00	0.025150	-3.709921e-01	-0.002731	4.726738e-03	0.000098	
623.523000	9.988044e-01	1408.912239	1.112256e+01	0.029642	-4.424731e-01	-0.003071	5.591845e-03	0.000111	
624.000000	9.978558e-01	1320.350065	2.187186e+01	0.040410	-8.614604e-01	-0.004290	1.086534e-02	0.000136	
624.477000	9.983270e-01	1410.144050	1.122110e+01	0.024965	-4.520679e-01	-0.002984	5.759251e-03	0.000102	
624.953000	9.989351e-01	1414.082633	1.055083e+01	0.026689	-4.220202e-01	-0.002846	5.350206e-03	0.000104	
625.430000	9.991054e-01	1400.790167	1.209068e+01	0.031799	-4.785300e-01	-0.003456	6.004376e-03	0.000124	
625.907000	9.977433e-01	1418.912529	9.852490e+00	0.023029	-3.890859e-01	-0.002637	4.858591e-03	0.000088	
626.383000	9.990829e-01	1414.485422	1.045122e+01	0.027298	-4.190648e-01	-0.002829	5.321407e-03	0.000106	
626.860000	9.986149e-01	1402.194876	1.212723e+01	0.025823	-4.891854e-01	-0.002933	6.261209e-03	0.000102	
627.337000	9.986516e-01	1422.657120	9.606926e+00	0.026495	-3.889482e-01	-0.002946	4.972978e-03	0.000105	
627.814000	9.972232e-01	1425.075464	9.197501e+00	0.021996	-3.690977e-01	-0.002630	4.676663e-03	0.000086	
628.291000	9.978576e-01	1415.789355	1.001008e+01	0.024443	-3.900287e-01	-0.002757	4.831612e-03	0.000095	
628.768000	9.990582e-01	1397.504196	1.249307e+01	0.029324	-4.975971e-01	-0.003029	6.301310e-03	0.000113	
629.245000	9.985990e-01	1411.964282	1.098190e+01	0.026529	-4.451416e-01	-0.003121	5.718820e-03	0.000112	
629.722000	9.980884e-01	1407.026514	1.144640e+01	0.027156	-4.581849e-01	-0.002993	5.812282e-03	0.000101	
630.199000	9.984317e-01	1421.762392	9.549501e+00	0.024256	-3.820579e-01	-0.002754	4.818936e-03	0.000095	
630.676000	9.986744e-01	1390.025981	1.333537e+01	0.029047	-5.270789e-01	-0.003331	6.643365e-03	0.000115	
631.153000	9.987608e-01	1407.521886	1.131800e+01	0.028386	-4.504691e-01	-0.003092	5.695050e-03	0.000110	
631.630000	9.988493e-01	1410.397297	1.098060e+01	0.028204	-4.377993e-01	-0.003078	5.534013e-03	0.000108	
632.108000	9.982695e-01	1416.805460	1.023437e+01	0.024113	-4.098506e-01	-0.002742	5.191053e-03	0.000094	
632.585000	9.992037e-01	1409.240404	1.120066e+01	0.031197	-4.461670e-01	-0.003232	5.623067e-03	0.000120	
633.062000	9.987093e-01	1409.744434	1.087129e+01	0.028337	-4.263102e-01	-0.003108	5.316148e-03	0.000110	
633.539000	9.991378e-01	1395.136456	1.273566e+01	0.031610	-5.043418e-01	-0.003205	6.351892e-03	0.000119	
634.017000	9.985938e-01	1429.181155	8.652990e+00	0.023716	-3.459339e-01	-0.002802	4.363835e-03	0.000100	
634.494000	9.918022e-01	1409.534395	1.105858e+01	0.022280	-4.413437e-01	-0.002927	5.581495e-03	0.000084	
634.971000	9.988800e-01	1412.061690	1.090794e+01	0.028245	-4.386420e-01	-0.003031	5.581342e-03	0.000109	
635.449000	9.989880e-01	1407.776599	1.143757e+01	0.027677	-4.580921e-01	-0.002879	5.829490e-03	0.000105	
635.926000	9.987646e-01	1414.755137	1.050010e+01	0.026739	-4.229102e-01	-0.002943	5.393136e-03	0.000106	
636.404000	9.989641e-01	1422.012570	9.625900e+00	0.026390	-3.864306e-01	-0.002792	4.896824e-03	0.000104	
636.881000	9.992266e-01	1401.212653	1.207868e+01	0.032285	-4.832248e-01	-0.003327	6.142352e-03	0.000122	
637.359000	9.972423e-01	1413.643312	1.066373e+01	0.021809	-4.283425e-01	-0.002729	5.452727e-03	0.000090	
637.837000	9.716195e-01	1427.912681	8.862571e+00	0.015482	-3.561941e-01	-0.002819	4.538334e-03	0.000075	
638.314000	9.943963e-01	1426.579204	8.935834e+00	0.019740	-3.552369e-01	-0.002866	4.458623e-03	0.000086	
638.792000	9.987055e-01	1391.006698	1.340196e+01	0.028737	-5.341175e-01	-0.003323	6.766552e-03	0.000114	
639.270000	9.991433e-01	1393.882862	1.300655e+01	0.031443	-5.193569e-01	-0.003240	6.576469e-03	0.000119	
639.747000	9.914833e-01	1407.568614	1.132215e+01	0.020348	-4.497672e-01	-0.003269	5.680372e-03	0.000095	
640.225000	9.972199e-01	1436.985875	7.767447e+00	0.019116	-3.133395e-01	-0.002291	3.990533e-03	0.000077	
640.703000	9.978929e-01	1422.841560	9.526538e+00	0.022806	-3.841138e-01	-0.002834	4.892166e-03	0.000095	
641.181000	9.993868e-01	1393.236179	1.295094e+01	0.035629	-5.118357e-01	-0.003652	6.437024e-03	0.000137	
641.658000	9.937259e-01	1427.849219	8.922107e+00	0.017901	-3.626311e-01	-0.002378	4.635091e-03	0.000072	
642.136000	9.988529e-01	1418.052552	1.012731e+01	0.025703	-4.061433e-01	-0.002882	5.157649e-03	0.000103	
642.614000	9.979268e-01	1403.892807	1.167089e+01	0.025975	-4.616166e-01	-0.002927	5.822592e-03	0.000097	
643.092000	9.986874e-01	1444.865158	6.740559e+00	0.022562	-2.760363e-01	-0.002388	3.566829e-03	0.000101	
643.570000	9.914918e-01	1423.481401	9.345457e+00	0.017977	-3.758481e-01	-0.002501	4.763766e-03	0.000073	
644.048000	9.971140e-01	1422.677939	9.453288e+00	0.020998	-3.806802e-01	-0.002629	4.857779e-03	0.000086	
644.526000	9.979545e-01	1424.608416	9.326386e+00	0.023300	-3.746838e-01	-0.002744	4.756720e-03	0.000092	
645.004000	9.973042e-01	1417.089629	1.016613e+01	0.023811	-4.047160e-01	-0.002690	5.105537e-03	0.000088	
645.483000	9.985661e-01	1409.763539	1.108569e+01	0.025571	-4.417328e-01	-0.002783	5.565972e-03	0.000098	
645.961000	9.990264e-01	1410.120123	1.107996e+01	0.028524	-4.446509e-01	-0.003003	5.653268e-03	0.000111	
646.439000	9.991631e-01	1401.247060	1.213752e+01	0.032034	-4.840257e-01	-0.003388	6.121412e-03	0.000125	
646.917000	9.988343e-01	1393.228885	1.296233e+01	0.030869	-5.111441e-01	-0.003367	6.415129e-03	0.000116	
647.395000	9.990649e-01	1391.891404	1.330910e+01	0.031312	-5.299744e-01	-0.003315	6.718796e-03	0.000120	
647.874000	9.989380e-01	1398.232896	1.235626e+01	0.031839	-4.926871e-01	-0.003298	6.229366e-03	0.000120	
648.352000	9.797919e-01	1420.406350	9.864325e+00	0.015774	-4.006304e-01	-0.002724	5.131662e-03	0.000076	
648.830000	9.985874e-01	1405.368348	1.162429e+01	0.028865	-4.633423e-01	-0.003292	5.858775e-03	0.000112	
649.309000	9.990274e-01	1389.206512	1.368736e+01	0.032219	-5.490197e-01	-0.003336	6.980015e-03	0.000120	
649.787000	9.991758e-01	1396.721936	1.270615e+01	0.030993	-5.081181e-01	-0.003171	6.459789e-03	0.000118	
650.266000	9.991894e-01	1406.720170	1.149731e+01	0.030959	-4.598117e-01	-0.003281	5.832560e-03	0.000121	
650.744000	9.981634e-01	1413.711300	1.052083e+01	0.025789	-4.207052e-01	-0.003042	5.328531e-03	0.000103	
651.223000	9.986300e-01	1401.713479	1.183993e+01	0.027528	-4.678849e-01	-0.002914	5.878412e-03	0.000103	
651.701000	9.985627e-01	1408.668428	1.121049e+01	0.026760	-4.475336e-01	-0.002945	5.661396e-03	0.000102	
652.180000	9.992050e-01	1391.643041	1.336559e+01	0.033227	-5.353282e-01	-0.003391	6.807584e-03	0.000127	
652.658000	9.968645e-01	1435.647405	7.926416e+00	0.018992	-3.213786e-01	-0.002204	4.097421e-03	0.000074	
653.137000	9.924710e-01	1416.641149	1.042964e+01	0.019895	-4.228785e-01	-0.002908	5.414261e-03	0.000085	
653.616000	9.987777e-01	1410.714315	1.100957e+01	0.026623	-4.423710e-01	-0.002955	5.631958e-03	0.000105	
654.095000	9.876996e-01	1433.206984	8.410048e+00	0.016164	-3.415887e-01	-0.002727	4.332285e-03	0.000078	
654.573000	9.975091e-01	1429.025516	8.756101e+00	0.023323	-3.522029e-01	-0.002811	4.479844e-03	0.000093	
655.052000	9.848191e-01	1418.967944	9.792716e+00	0.020207	-3.882635e-01	-0.002785	4.871086e-03	0.000078	
655.531000	9.987688e-01	1423.215575	9.334874e+00	0.027546	-3.722999e-01	-0.003202	4.679686e-03	0.000115	
656.010000	9.989632e-01	1391.869362	1.308935e+01	0.029452	-5.173991e-01	-0.003222	6.492865e-03	0.000114	
656.489000	9.984526e-01	1418.936118	9.806330e+00	0.026577	-3.910202e-01	-0.002880	4.944991e-03	0.000102	
656.968000	9.981651e-01	1412.379861	1.075470e+01	0.025384	-4.300285e-01	-0.003011	5.444495e-03	0.000101	
657.447000	9.812969e-01	1418.732784	1.012617e+01	0.017744	-4.090399e-01	-0.003100	5.215440e-03	0.000084	
657.925000	9.984498e-01	1421.338069	9.720094e+00	0.023986	-3.919572e-01	-0.002657	4.988707e-03	0.000094	
658.405000	9.978369e-01	1409.166853	1.087324e+01	0.024295	-4.308462e-01	-0.002721	5.416148e-03	0.000091	
658.884000	9.981352e-01	1413.237939	1.073018e+01	0.024718	-4.302739e-01	-0.002902	5.461018e-03	0.000101	
659.363000	8.720198e-01	1427.360892	8.831738e+00	0.013946	-3.550322e-01	-0.001902	4.502907e-03	0.000046	
659.842000	9.978205e-01	1432.972273	8.175381e+00	0.020389	-3.293279e-01	-0.002272	4.179097e-03	0.000081	
660.321000	9.983925e-01	1414.060894	1.071407e+01	0.026340	-4.303313e-01	-0.003126	5.469878e-03	0.000106	
660.800000	9.988265e-01	1406.419274	1.130241e+01	0.030092	-4.470702e-01	-0.003139	5.626049e-03	0.000114	
661.279000	9.992567e-01	1402.609115	1.190653e+01	0.031810	-4.766695e-01	-0.003253	6.047430e-03	0.000121	
661.759000	9.987686e-01	1392.497153	1.340831e+01	0.029507	-5.416988e-01	-0.003178	6.947361e-03	0.000115	
662.238000	9.990290e-01	1411.303629	1.079043e+01	0.028199	-4.275599e-01	-0.002937	5.365310e-03	0.000108	
662.717000	9.991373e-01	1386.196473	1.390104e+01	0.033268	-5.557387e-01	-0.003528	7.062815e-03	0.000128	
663.197000	9.928891e-01	1430.529456	8.425614e+00	0.018136	-3.340030e-01	-0.002718	4.171519e-03	0.000083	
663.676000	9.989369e-01	1404.691191	1.164141e+01	0.029386	-4.649642e-01	-0.003051	5.887071e-03	0.000110	
664.155000	9.829154e-01	1442.106385	7.129757e+00	0.015100	-2.921864e-01	-0.001966	3.744751e-03	0.000055	
664.635000	9.983892e-01	1421.999030	9.717666e+00	0.024006	-3.939180e-01	-0.002720	5.022681e-03	0.000095	
665.114000	9.989226e-01	1399.290006	1.234854e+01	0.029490	-4.938514e-01	-0.003083	6.261671e-03	0.000111	
665.594000	9.985665e-01	1419.533727	9.891831e+00	0.025922	-3.974324e-01	-0.002680	5.042857e-03	0.000096	
666.073000	9.990477e-01	1406.617837	1.160443e+01	0.029553	-4.692893e-01	-0.003078	5.997831e-03	0.000112	
666.553000	9.987297e-01	1417.278237	1.032860e+01	0.024509	-4.211843e-01	-0.002582	5.408167e-03	0.000096	
667.033000	9.989067e-01	1398.661830	1.249299e+01	0.029328	-5.002252e-01	-0.003098	6.349013e-03	0.000112	
667.512000	9.974781e-01	1439.025327	7.672539e+00	0.020739	-3.157351e-01	-0.002466	4.057034e-03	0.000083	
667.992000	9.985809e-01	1407.208526	1.118487e+01	0.026847	-4.443173e-01	-0.003020	5.595470e-03	0.000104	
668.472000	9.989589e-01	1395.315129	1.283503e+01	0.030426	-5.125601e-01	-0.003234	6.488132e-03	0.000118	
668.951000	9.988067e-01	1417.461054	1.028677e+01	0.026093	-4.157691e-01	-0.002898	5.295266e-03	0.000105	
669.431000	9.945079e-01	1416.535685	1.013862e+01	0.019398	-4.041240e-01	-0.002470	5.092584e-03	0.000076	
669.911000	9.990228e-01	1399.392040	1.235940e+01	0.029397	-4.953970e-01	-0.003119	6.291126e-03	0.000113	
670.391000	9.987008e-01	1406.476660	1.132745e+01	0.027640	-4.508047e-01	-0.002985	5.685550e-03	0.000105	
670.871000	9.973512e-01	1442.687448	7.291350e+00	0.006365	-3.021986e-01	-0.002513	3.905657e-03	0.000044	
671.351000	9.990448e-01	1405.922216	1.152490e+01	0.029450	-4.623336e-01	-0.003028	5.868887e-03	0.000114	
671.831000	9.982372e-01	1414.054805	1.045080e+01	0.025921	-4.187131e-01	-0.002939	5.281186e-03	0.000100	
672.311000	9.991828e-01	1400.916656	1.219625e+01	0.031039	-4.885677e-01	-0.003310	6.198892e-03	0.000122	
672.791000	9.989462e-01	1400.433446	1.216109e+01	0.028858	-4.831546e-01	-0.003092	6.079632e-03	0.000110	
673.271000	9.987305e-01	1415.461227	1.055102e+01	0.027178	-4.272550e-01	-0.002987	5.459842e-03	0.000106	
673.751000	9.983848e-01	1431.678355	8.367905e+00	0.022249	-3.349630e-01	-0.002438	4.210708e-03	0.000090	
674.231000	9.992044e-01	1392.754802	1.322712e+01	0.031996	-5.311822e-01	-0.003281	6.765451e-03	0.000122	
674.711000	9.984945e-01	1399.752945	1.222882e+01	0.027788	-4.865055e-01	-0.002959	6.140838e-03	0.000103	
675.191000	9.989575e-01	1406.870405	1.143377e+01	0.029063	-4.589130e-01	-0.003091	5.834010e-03	0.000112	
675.671000	9.284663e-01	1438.120764	7.536723e+00	0.011154	-3.043018e-01	-0.001877	3.842539e-03	0.000044	
676.152000	9.975808e-01	1414.838324	1.033614e+01	0.024445	-4.142047e-01	-0.002718	5.245976e-03	0.000093	
676.632000	9.972854e-01	1424.748543	9.189215e+00	0.022069	-3.698826e-01	-0.002643	4.690085e-03	0.000085	
677.112000	9.990739e-01	1405.394541	1.162089e+01	0.028810	-4.656098e-01	-0.003161	5.899539e-03	0.000114	
677.593000	9.985279e-01	1409.472545	1.120681e+01	0.026616	-4.511962e-01	-0.002945	5.741279e-03	0.000102	
678.073000	9.985754e-01	1412.386650	1.086068e+01	0.026506	-4.403561e-01	-0.003013	5.634039e-03	0.000105	
678.553000	9.986193e-01	1415.973471	1.031631e+01	0.025200	-4.168048e-01	-0.002636	5.307210e-03	0.000097	
679.034000	9.954123e-01	1414.723515	1.051121e+01	0.021134	-4.246874e-01	-0.002793	5.419692e-03	0.000086	
679.514000	9.979147e-01	1406.410086	1.153486e+01	0.024251	-4.655410e-01	-0.002922	5.943385e-03	0.000096	
679.995000	9.985510e-01	1413.071988	1.039091e+01	0.026438	-4.100827e-01	-0.002879	5.129100e-03	0.000101	
680.476000	9.986633e-01	1406.464540	1.143207e+01	0.027819	-4.584822e-01	-0.003085	5.807947e-03	0.000109	
680.956000	9.992633e-01	1389.537042	1.356941e+01	0.033645	-5.441763e-01	-0.003548	6.912068e-03	0.000131	
681.437000	9.990392e-01	1413.874343	1.063926e+01	0.029036	-4.298875e-01	-0.003117	5.477371e-03	0.000113	
681.917000	9.984797e-01	1414.452175	1.055914e+01	0.025439	-4.273675e-01	-0.002776	5.456207e-03	0.000097	
682.398000	9.961544e-01	1422.886763	9.466019e+00	0.019176	-3.821070e-01	-0.002330	4.863333e-03	0.000076	
682.879000	9.986784e-01	1414.055538	1.056692e+01	0.026945	-4.240666e-01	-0.003076	5.370947e-03	0.000109	
683.360000	9.983837e-01	1424.968762	9.245850e+00	0.024566	-3.715435e-01	-0.002808	4.698781e-03	0.000098	
683.840000	9.990101e-01	1397.269501	1.262879e+01	0.030217	-5.067856e-01	-0.003198	6.438547e-03	0.000115	
684.321000	9.890999e-01	1413.403863	1.053792e+01	0.019012	-4.211131e-01	-0.002647	5.324645e-03	0.000075	
684.802000	9.980330e-01	1408.572697	1.119738e+01	0.024911	-4.497811e-01	-0.002751	5.703170e-03	0.000093	
685.283000	9.986892e-01	1415.041514	1.062827e+01	0.025769	-4.323427e-01	-0.002893	5.548938e-03	0.000105	
685.764000	9.990146e-01	1396.688472	1.264583e+01	0.030818	-5.064695e-01	-0.003184	6.420152e-03	0.000115	
686.245000	9.984735e-01	1416.533853	1.030329e+01	0.024887	-4.155226e-01	-0.002772	5.280206e-03	0.000096	
686.726000	9.956866e-01	1408.299602	1.115034e+01	0.021121	-4.456357e-01	-0.002532	5.654668e-03	0.000080	
687.207000	9.985427e-01	1404.441088	1.179157e+01	0.026493	-4.794755e-01	-0.002830	6.167470e-03	0.000101	
687.688000	9.981038e-01	1411.528608	1.084277e+01	0.024677	-4.342694e-01	-0.003036	5.490707e-03	0.000102	
688.169000	9.839028e-01	1432.687621	8.332031e+00	0.015907	-3.393164e-01	-0.002216	4.335743e-03	0.000062	
688.650000	9.983085e-01	1424.944178	9.176132e+00	0.023357	-3.667830e-01	-0.002730	4.615375e-03	0.000094	
689.131000	9.973072e-01	1423.066985	9.496083e+00	0.021565	-3.835771e-01	-0.002538	4.873380e-03	0.000086	
689.612000	9.973288e-01	1416.167586	1.034432e+01	0.021822	-4.171231e-01	-0.002542	5.292880e-03	0.000086	
690.094000	9.992275e-01	1405.355452	1.167029e+01	0.031747	-4.696677e-01	-0.003296	5.966878e-03	0.000124	
690.575000	9.994266e-01	1400.587076	1.216441e+01	0.035996	-4.872614e-01	-0.003648	6.176876e-03	0.000139	
691.056000	9.989486e-01	1392.930762	1.311963e+01	0.030773	-5.265617e-01	-0.003242	6.695171e-03	0.000115	
691.537000	9.988856e-01	1405.564953	1.168676e+01	0.027694	-4.734313e-01	-0.003007	6.053948e-03	0.000108	
692.019000	9.981124e-01	1417.607502	1.001096e+01	0.024503	-3.972435e-01	-0.002803	4.972182e-03	0.000093	
692.500000	9.983534e-01	1417.042540	1.011865e+01	0.026524	-4.056191e-01	-0.003061	5.129931e-03	0.000104	
692.982000	9.737936e-01	1421.555896	9.645181e+00	0.014357	-3.914214e-01	-0.002567	4.991896e-03	0.000058	
693.463000	9.979477e-01	1421.449491	9.691864e+00	0.022404	-3.905818e-01	-0.002809	4.958436e-03	0.000095	
693.944000	9.985502e-01	1423.739072	9.164882e+00	0.024319	-3.640182e-01	-0.002607	4.577665e-03	0.000096	
694.426000	9.987125e-01	1402.322513	1.192462e+01	0.028499	-4.750798e-01	-0.003111	5.990662e-03	0.000109	
694.908000	9.990278e-01	1406.527694	1.144875e+01	0.027560	-4.610234e-01	-0.002911	5.855588e-03	0.000108	
695.389000	9.985532e-01	1401.922281	1.193257e+01	0.026623	-4.787928e-01	-0.002820	6.092365e-03	0.000104	
695.871000	9.990438e-01	1399.999253	1.214105e+01	0.032146	-4.834160e-01	-0.003261	6.090153e-03	0.000124	
696.352000	9.990839e-01	1398.331464	1.223675e+01	0.032058	-4.871403e-01	-0.003233	6.138769e-03	0.000121	
696.834000	9.972152e-01	1429.534825	8.582927e+00	0.021794	-3.424301e-01	-0.002606	4.279092e-03	0.000085	
697.316000	9.969367e-01	1427.508851	9.055140e+00	0.020355	-3.697617e-01	-0.002428	4.733867e-03	0.000080	
697.798000	9.975946e-01	1408.684972	1.102835e+01	0.023510	-4.369154e-01	-0.002701	5.476224e-03	0.000089	
698.279000	9.983216e-01	1437.262078	7.719276e+00	0.021141	-3.166482e-01	-0.002355	4.059605e-03	0.000088	
698.761000	9.984217e-01	1417.983709	1.006300e+01	0.025453	-4.055058e-01	-0.002774	5.141508e-03	0.000098	
699.243000	9.987161e-01	1396.162203	1.262565e+01	0.030703	-5.012589e-01	-0.003389	6.294032e-03	0.000115	
699.725000	9.974337e-01	1425.651271	9.125356e+00	0.022346	-3.692755e-01	-0.002628	4.688275e-03	0.000087	
700.207000	9.989047e-01	1406.055451	1.156914e+01	0.028649	-4.622519e-01	-0.003226	5.835361e-03	0.000115	
700.689000	9.974463e-01	1422.966606	9.532049e+00	0.021745	-3.863783e-01	-0.002461	4.930257e-03	0.000082	
701.171000	9.983405e-01	1399.930876	1.210675e+01	0.030357	-4.831021e-01	-0.003357	6.097560e-03	0.000110	
701.653000	9.825632e-01	1425.462412	9.116925e+00	0.017125	-3.685295e-01	-0.002488	4.676061e-03	0.000069	
702.135000	9.982587e-01	1427.996439	8.787545e+00	0.024738	-3.543366e-01	-0.002806	4.484411e-03	0.000096	
702.617000	9.353301e-01	1431.899196	8.335801e+00	0.013524	-3.375075e-01	-0.002302	4.280885e-03	0.000059	
703.099000	9.929422e-01	1426.213990	9.072141e+00	0.019499	-3.675245e-01	-0.002599	4.683189e-03	0.000078	
703.581000	9.987449e-01	1412.357876	1.085602e+01	0.025913	-4.410470e-01	-0.002861	5.649121e-03	0.000103	
704.063000	9.985530e-01	1417.524296	1.009481e+01	0.024829	-4.088399e-01	-0.002735	5.202840e-03	0.000097	
704.546000	9.987738e-01	1406.846509	1.128472e+01	0.027815	-4.571350e-01	-0.002913	5.774046e-03	0.000106	
705.028000	9.978409e-01	1416.224109	1.004913e+01	0.023234	-4.018547e-01	-0.002635	5.061687e-03	0.000089	
705.510000	9.988092e-01	1423.827836	9.323738e+00	0.024954	-3.781634e-01	-0.002751	4.813780e-03	0.000102	
705.992000	9.986763e-01	1404.639848	1.160564e+01	0.028021	-4.625748e-01	-0.002990	5.836412e-03	0.000106	
706.475000	9.785274e-01	1440.571960	7.212772e+00	0.010580	-2.894284e-01	-0.001773	3.624323e-03	0.000035	
706.957000	9.980924e-01	1415.979143	1.044594e+01	0.023976	-4.229854e-01	-0.002818	5.392247e-03	0.000096	
707.440000	9.983458e-01	1415.839852	1.028072e+01	0.026913	-4.134532e-01	-0.003021	5.245436e-03	0.000104	
707.922000	9.989092e-01	1393.711894	1.304278e+01	0.031159	-5.270736e-01	-0.003275	6.722927e-03	0.000117	
708.404000	9.984025e-01	1407.071727	1.135906e+01	0.026572	-4.581025e-01	-0.002914	5.835418e-03	0.000102	
708.887000	9.988907e-01	1412.362789	1.064196e+01	0.027145	-4.261473e-01	-0.002876	5.381932e-03	0.000105	
709.369000	9.979309e-01	1422.817321	9.394326e+00	0.024535	-3.789584e-01	-0.002762	4.804919e-03	0.000096	
709.852000	9.608977e-01	1416.393853	1.022813e+01	0.015437	-4.148222e-01	-0.002816	5.302743e-03	0.000073	
710.335000	9.914729e-01	1440.242246	7.286649e+00	0.010606	-2.985082e-01	-0.002551	3.809466e-03	0.000054	
710.817000	9.985961e-01	1423.089655	9.333569e+00	0.024191	-3.754186e-01	-0.002802	4.752341e-03	0.000098	
711.300000	9.880340e-01	1387.154808	1.367501e+01	0.023472	-5.437908e-01	-0.003052	6.858292e-03	0.000084	
711.783000	9.988914e-01	1409.243015	1.103575e+01	0.030134	-4.414995e-01	-0.003181	5.558704e-03	0.000114	
712.265000	9.989918e-01	1431.084099	8.430543e+00	0.025980	-3.430059e-01	-0.002772	4.369940e-03	0.000105	
712.748000	9.986016e-01	1421.383346	9.333649e+00	0.024805	-3.714218e-01	-0.002639	4.635065e-03	0.000095	
713.231000	9.989814e-01	1404.692529	1.174371e+01	0.028524	-4.743523e-01	-0.003062	6.036780e-03	0.000112	
713.714000	9.992065e-01	1392.684194	1.312730e+01	0.032226	-5.259504e-01	-0.003285	6.665286e-03	0.000123	
714.197000	9.959546e-01	1417.073563	9.822882e+00	0.021254	-3.894213e-01	-0.002531	4.849361e-03	0.000080	
714.680000	9.987083e-01	1402.387573	1.196270e+01	0.029904	-4.807401e-01	-0.003157	6.105699e-03	0.000116	
715.163000	9.992540e-01	1397.420954	1.252260e+01	0.032028	-5.013689e-01	-0.003305	6.350201e-03	0.000123	
715.646000	9.986678e-01	1418.476931	9.756970e+00	0.027194	-3.916900e-01	-0.002959	4.946558e-03	0.000106	
716.129000	9.971052e-01	1404.810330	1.160602e+01	0.024563	-4.678160e-01	-0.003034	5.947546e-03	0.000096	
716.612000	9.977037e-01	1411.755432	1.075821e+01	0.023829	-4.323242e-01	-0.002938	5.466607e-03	0.000097	
717.095000	9.985779e-01	1406.343386	1.170783e+01	0.026772	-4.761889e-01	-0.003003	6.095778e-03	0.000106	
717.578000	9.969549e-01	1411.631335	1.065141e+01	0.021411	-4.264558e-01	-0.002708	5.363467e-03	0.000087	
718.061000	9.963176e-01	1432.018906	8.103713e+00	0.020876	-3.251613e-01	-0.002540	4.085512e-03	0.000082	
718.544000	9.974996e-01	1418.047493	9.933150e+00	0.025025	-4.001651e-01	-0.002985	5.060296e-03	0.000097	
719.027000	9.982406e-01	1398.111628	1.240582e+01	0.028665	-4.981817e-01	-0.003182	6.305141e-03	0.000108	
719.511000	9.990401e-01	1403.247122	1.182189e+01	0.029874	-4.775260e-01	-0.003199	6.066231e-03	0.000117	
719.994000	9.988643e-01	1407.719009	1.109028e+01	0.029598	-4.416608e-01	-0.003135	5.546784e-03	0.000111	
720.477000	9.984821e-01	1421.032746	9.622965e+00	0.025203	-3.909871e-01	-0.002707	4.980786e-03	0.000097	
720.961000	9.986268e-01	1409.062712	1.105726e+01	0.026980	-4.444551e-01	-0.002936	5.619910e-03	0.000104	
721.444000	9.852386e-01	1421.185746	9.630075e+00	0.016437	-3.919865e-01	-0.002545	5.000767e-03	0.000072	
721.927000	9.964317e-01	1408.760485	1.092586e+01	0.022098	-4.395258e-01	-0.002806	5.564818e-03	0.000088	
722.411000	9.991639e-01	1405.618244	1.178444e+01	0.030966	-4.827947e-01	-0.003247	6.215038e-03	0.000121	
722.894000	9.969422e-01	1404.156528	1.161719e+01	0.024868	-4.629128e-01	-0.003050	5.820364e-03	0.000097	
723.378000	9.985763e-01	1405.192348	1.178446e+01	0.028288	-4.817784e-01	-0.003039	6.189269e-03	0.000110	
723.861000	9.978723e-01	1413.996725	1.035475e+01	0.022859	-4.150971e-01	-0.002553	5.232789e-03	0.000088	
724.345000	9.987414e-01	1404.075834	1.169965e+01	0.027310	-4.757233e-01	-0.002861	6.089423e-03	0.000103	
724.829000	9.990377e-01	1411.258200	1.081365e+01	0.029517	-4.354294e-01	-0.003071	5.500417e-03	0.000114	
725.312000	9.987686e-01	1402.685667	1.189712e+01	0.028261	-4.803121e-01	-0.003052	6.107909e-03	0.000110	
725.796000	9.984495e-01	1409.205174	1.113175e+01	0.026113	-4.494151e-01	-0.002880	5.711969e-03	0.000100	
726.280000	9.986740e-01	1412.556966	1.063474e+01	0.027877	-4.290080e-01	-0.002928	5.436438e-03	0.000107	
726.763000	9.989280e-01	1406.951516	1.151623e+01	0.029638	-4.687218e-01	-0.003157	5.996359e-03	0.000116	
727.247000	9.993269e-01	1399.381884	1.229277e+01	0.033365	-4.947555e-01	-0.003411	6.263115e-03	0.000129	
727.731000	9.993173e-01	1390.202370	1.343331e+01	0.034086	-5.392734e-01	-0.003567	6.839376e-03	0.000133	
728.215000	9.989738e-01	1395.762604	1.265066e+01	0.031968	-5.075783e-01	-0.003303	6.426955e-03	0.000121	
728.699000	9.992176e-01	1394.273779	1.282025e+01	0.035193	-5.138691e-01	-0.003593	6.494265e-03	0.000132	
729.183000	9.988943e-01	1393.206002	1.315589e+01	0.030537	-5.356153e-01	-0.003202	6.844774e-03	0.000118	
729.666000	9.981277e-01	1415.052440	1.037891e+01	0.023938	-4.204945e-01	-0.002618	5.346651e-03	0.000092	
730.150000	9.986983e-01	1409.412185	1.107327e+01	0.025941	-4.492746e-01	-0.002803	5.720085e-03	0.000101	
730.634000	9.961162e-01	1418.048781	9.986905e+00	0.021514	-4.051857e-01	-0.002543	5.158156e-03	0.000084	
731.119000	9.991094e-01	1407.021402	1.144086e+01	0.030018	-4.658328e-01	-0.003225	5.970015e-03	0.000119	
731.603000	9.990607e-01	1407.327005	1.138359e+01	0.028337	-4.620235e-01	-0.002992	5.889722e-03	0.000110	
732.087000	9.954302e-01	1420.887835	9.476216e+00	0.020557	-3.802240e-01	-0.002469	4.781495e-03	0.000077	
732.571000	9.965967e-01	1423.402602	9.410342e+00	0.020948	-3.843614e-01	-0.002623	4.910884e-03	0.000086	
733.055000	9.548786e-01	1432.272617	8.160978e+00	0.015014	-3.331192e-01	-0.002409	4.237818e-03	0.000062	
733.539000	9.985572e-01	1418.456159	1.004095e+01	0.024827	-4.110655e-01	-0.002797	5.268884e-03	0.000098	
734.023000	9.973678e-01	1407.115318	1.142231e+01	0.024583	-4.624290e-01	-0.002892	5.882586e-03	0.000094	
734.508000	9.991353e-01	1376.357599	1.510323e+01	0.035241	-6.048918e-01	-0.003639	7.672063e-03	0.000133	
734.992000	9.985962e-01	1393.671284	1.293242e+01	0.028354	-5.213510e-01	-0.003200	6.635802e-03	0.000111	
735.476000	9.958058e-01	1416.408819	1.026342e+01	0.022281	-4.208496e-01	-0.002844	5.397914e-03	0.000088	
735.961000	9.982294e-01	1409.015477	1.122425e+01	0.024565	-4.596601e-01	-0.002855	5.901611e-03	0.000099	
736.445000	9.973950e-01	1401.309996	1.200006e+01	0.024454	-4.845486e-01	-0.002819	6.156776e-03	0.000094	
736.930000	9.964237e-01	1490.085698	1.214207e+00	0.010482	-6.929795e-02	-0.001602	9.988322e-04	0.000069	
737.414000	9.986609e-01	1395.166835	1.265174e+01	0.029788	-5.055817e-01	-0.003194	6.372394e-03	0.000112	
737.899000	9.989434e-01	1409.577332	1.103286e+01	0.029413	-4.462452e-01	-0.003300	5.672084e-03	0.000118	
738.383000	9.986378e-01	1415.711283	1.030309e+01	0.025962	-4.185088e-01	-0.002839	5.320789e-03	0.000100	
738.868000	9.984983e-01	1402.799958	1.185832e+01	0.027967	-4.771247e-01	-0.003100	6.045560e-03	0.000109	
739.352000	9.989351e-01	1394.792107	1.265307e+01	0.033241	-5.053037e-01	-0.003485	6.349266e-03	0.000124	
739.837000	9.990079e-01	1393.221164	1.305403e+01	0.031164	-5.294009e-01	-0.003398	6.772666e-03	0.000122	
740.322000	9.987947e-01	1402.798351	1.195393e+01	0.028585	-4.872362e-01	-0.003019	6.244034e-03	0.000110	
740.806000	9.988867e-01	1403.124334	1.185991e+01	0.027874	-4.794219e-01	-0.002950	6.102052e-03	0.000108	
741.291000	9.988123e-01	1404.980652	1.148752e+01	0.030150	-4.610639e-01	-0.003172	5.826925e-03	0.000115	
741.776000	9.980447e-01	1420.651565	9.539765e+00	0.028153	-3.832250e-01	-0.003056	4.816277e-03	0.000108	
742.261000	9.988880e-01	1415.062574	1.027583e+01	0.028866	-4.138564e-01	-0.003232	5.223335e-03	0.000114	
742.746000	9.988448e-01	1406.549891	1.146751e+01	0.028423	-4.641506e-01	-0.003042	5.905297e-03	0.000110	
743.230000	9.536816e-01	1432.395063	8.184829e+00	0.014169	-3.326559e-01	-0.002471	4.215487e-03	0.000058	
743.715000	9.942842e-01	1425.818140	9.027189e+00	0.021195	-3.656764e-01	-0.002612	4.636011e-03	0.000083	
744.200000	9.819437e-01	1425.204736	9.079234e+00	0.016820	-3.710789e-01	-0.002618	4.726440e-03	0.000073	
744.685000	9.984197e-01	1413.153322	1.060624e+01	0.025627	-4.304952e-01	-0.002992	5.485628e-03	0.000104	
745.170000	9.990152e-01	1399.297469	1.243034e+01	0.030292	-5.049630e-01	-0.003200	6.456829e-03	0.000118	
745.655000	9.974722e-01	1414.182893	1.060851e+01	0.023167	-4.356370e-01	-0.002740	5.615947e-03	0.000092	
746.140000	9.990629e-01	1407.647929	1.125362e+01	0.030430	-4.533594e-01	-0.003205	5.740763e-03	0.000121	
746.625000	9.969142e-01	1414.035303	1.036446e+01	0.022310	-4.161342e-01	-0.002714	5.240638e-03	0.000087	
747.111000	9.988569e-01	1402.723931	1.189661e+01	0.028956	-4.838473e-01	-0.003137	6.185706e-03	0.000114	
747.596000	9.983202e-01	1413.534919	1.058428e+01	0.024969	-4.320255e-01	-0.002833	5.529104e-03	0.000100	
748.081000	8.358316e-01	1438.523287	7.443628e+00	0.010574	-3.047097e-01	-0.001640	3.861690e-03	0.000040	
748.566000	9.987366e-01	1404.583022	1.158078e+01	0.029293	-4.687058e-01	-0.003332	5.964096e-03	0.000118	
749.051000	9.990690e-01	1399.067169	1.206291e+01	0.031540	-4.819298e-01	-0.003229	6.074856e-03	0.000120	
749.537000	9.984510e-01	1409.915959	1.103878e+01	0.026803	-4.457751e-01	-0.002911	5.650553e-03	0.000103	
750.022000	9.985623e-01	1403.871484	1.156572e+01	0.027361	-4.647871e-01	-0.002927	5.875702e-03	0.000104	
750.508000	9.977768e-01	1414.390520	1.044087e+01	0.024980	-4.203590e-01	-0.002850	5.314628e-03	0.000098	
750.993000	9.991207e-01	1389.443438	1.348441e+01	0.032440	-5.428934e-01	-0.003362	6.904689e-03	0.000125	
751.478000	9.987139e-01	1403.742394	1.162443e+01	0.027568	-4.658946e-01	-0.002975	5.876102e-03	0.000107	
751.964000	9.987514e-01	1406.451135	1.139500e+01	0.028632	-4.629245e-01	-0.002999	5.910458e-03	0.000110	
752.449000	9.932112e-01	1419.144419	9.946051e+00	0.018395	-4.060506e-01	-0.002596	5.193493e-03	0.000079	
752.935000	9.992740e-01	1404.112990	1.164953e+01	0.031679	-4.689739e-01	-0.003260	5.926270e-03	0.000123	
753.420000	9.534141e-01	1423.181209	9.330108e+00	0.015876	-3.793793e-01	-0.002355	4.814150e-03	0.000061	
753.906000	9.992481e-01	1401.461578	1.203861e+01	0.031887	-4.874966e-01	-0.003321	6.199988e-03	0.000122	
754.392000	9.948127e-01	1415.225808	1.058561e+01	0.020008	-4.349691e-01	-0.002609	5.592996e-03	0.000082	
754.877000	9.807751e-01	1441.503625	7.266757e+00	0.030747	-3.090037e-01	-0.003609	4.090023e-03	0.000117	
755.363000	9.982924e-01	1420.568163	9.551375e+00	0.022699	-3.846777e-01	-0.002594	4.848728e-03	0.000095	
755.849000	9.886969e-01	1436.033209	7.728366e+00	0.016241	-3.160432e-01	-0.002323	4.026029e-03	0.000071	
756.335000	9.975192e-01	1384.294812	1.402886e+01	0.027925	-5.624251e-01	-0.003112	7.129646e-03	0.000102	
756.820000	9.988779e-01	1410.849912	1.089561e+01	0.027669	-4.445669e-01	-0.002949	5.684586e-03	0.000108	
757.306000	9.990569e-01	1396.605665	1.262156e+01	0.032051	-5.108536e-01	-0.003318	6.517407e-03	0.000121	
757.792000	9.984758e-01	1412.706749	1.057328e+01	0.026692	-4.235469e-01	-0.002845	5.319056e-03	0.000101	
758.278000	9.927091e-01	1405.496390	1.152886e+01	0.018749	-4.681001e-01	-0.003019	5.983840e-03	0.000091	
758.764000	9.962470e-01	1436.824689	7.612171e+00	0.020002	-3.118163e-01	-0.002313	3.964898e-03	0.000077	
759.250000	9.991865e-01	1409.375228	1.106653e+01	0.030683	-4.473572e-01	-0.003256	5.662108e-03	0.000121	
759.736000	9.983065e-01	1411.558380	1.071117e+01	0.024415	-4.311777e-01	-0.002818	5.444142e-03	0.000097	
760.222000	9.982497e-01	1403.690283	1.175008e+01	0.025727	-4.756411e-01	-0.002890	6.048609e-03	0.000102	
760.708000	9.981593e-01	1426.860311	8.746041e+00	0.007221	-3.536618e-01	-0.002681	4.460655e-03	0.000038	
761.194000	9.956275e-01	1409.542287	1.107421e+01	0.021414	-4.523795e-01	-0.002904	5.791960e-03	0.000090	
761.680000	9.879203e-01	1416.843607	1.006563e+01	0.016905	-4.095166e-01	-0.002744	5.217940e-03	0.000079	
762.166000	9.987317e-01	1404.012292	1.167090e+01	0.028171	-4.702356e-01	-0.003019	5.950324e-03	0.000107	
762.653000	9.985625e-01	1408.672388	1.101854e+01	0.028064	-4.413035e-01	-0.003022	5.552944e-03	0.000106	
763.139000	9.979750e-01	1429.750436	8.648370e+00	0.022284	-3.593923e-01	-0.002793	4.641270e-03	0.000097	
763.625000	9.975688e-01	1420.569411	9.612044e+00	0.022769	-3.902675e-01	-0.002544	4.946059e-03	0.000089	
764.111000	9.985140e-01	1413.951889	1.062113e+01	0.025537	-4.333836e-01	-0.002885	5.525227e-03	0.000101	
764.598000	9.982479e-01	1403.375612	1.160898e+01	0.025758	-4.651285e-01	-0.002864	5.870661e-03	0.000101	
765.084000	9.981467e-01	1407.475503	1.115318e+01	0.025944	-4.502691e-01	-0.003109	5.705518e-03	0.000106	
765.571000	9.965238e-01	1427.764149	8.695081e+00	0.020944	-3.559712e-01	-0.002722	4.536758e-03	0.000087	
766.057000	9.968358e-01	1412.870734	1.048004e+01	0.021400	-4.233528e-01	-0.002553	5.363023e-03	0.000085	
766.543000	9.981338e-01	1415.383727	1.040761e+01	0.025150	-4.235154e-01	-0.002838	5.387869e-03	0.000098	
767.030000	9.980051e-01	1411.779363	1.080814e+01	0.022963	-4.420486e-01	-0.002517	5.663146e-03	0.000091	
767.517000	9.993832e-01	1386.576915	1.394142e+01	0.036554	-5.642077e-01	-0.003721	7.195555e-03	0.000142	
768.003000	9.978163e-01	1414.238520	1.029836e+01	0.024629	-4.161531e-01	-0.002689	5.260935e-03	0.000093	
768.490000	9.987966e-01	1414.150369	1.034112e+01	0.027519	-4.176014e-01	-0.002953	5.288485e-03	0.000107	
768.976000	9.982103e-01	1415.016720	1.039595e+01	0.023908	-4.250942e-01	-0.002571	5.441458e-03	0.000091	
769.463000	9.983928e-01	1410.254186	1.096751e+01	0.026522	-4.481607e-01	-0.002954	5.734899e-03	0.000104	
769.950000	9.860573e-01	1407.504130	1.116132e+01	0.020827	-4.496638e-01	-0.002737	5.700797e-03	0.000077	
770.436000	9.985027e-01	1399.378827	1.218902e+01	0.027592	-4.910021e-01	-0.003125	6.218470e-03	0.000108	
770.923000	9.922602e-01	1409.527551	1.102396e+01	0.020996	-4.462278e-01	-0.003204	5.661152e-03	0.000094	
771.410000	9.979513e-01	1413.886865	1.044588e+01	0.025900	-4.220099e-01	-0.002916	5.339319e-03	0.000101	
771.897000	9.986682e-01	1407.270054	1.141394e+01	0.027748	-4.656762e-01	-0.002949	5.951103e-03	0.000107	
772.384000	9.990561e-01	1396.845211	1.273079e+01	0.033475	-5.185269e-01	-0.003431	6.641982e-03	0.000128	
772.871000	9.986050e-01	1427.484230	8.784087e+00	0.026558	-3.567815e-01	-0.002910	4.507961e-03	0.000105	
773.358000	9.955509e-01	1406.502726	1.144453e+01	0.023157	-4.666342e-01	-0.002913	5.969401e-03	0.000089	
773.845000	9.984907e-01	1415.439187	1.018435e+01	0.024299	-4.137333e-01	-0.002668	5.246459e-03	0.000095	
774.332000	9.983922e-01	1405.368080	1.151219e+01	0.025840	-4.664699e-01	-0.002760	5.933675e-03	0.000098	
774.819000	9.981555e-01	1399.101323	1.211135e+01	0.028675	-4.866349e-01	-0.003082	6.154331e-03	0.000108	
775.306000	9.991942e-01	1418.671141	9.809275e+00	0.029852	-3.969504e-01	-0.003159	5.004888e-03	0.000118	
775.793000	9.964719e-01	1404.960831	1.154186e+01	0.023278	-4.683387e-01	-0.002804	5.961802e-03	0.000089	
776.280000	9.988242e-01	1407.698614	1.117208e+01	0.027992	-4.499827e-01	-0.002995	5.691501e-03	0.000108	
776.767000	9.951997e-01	1400.062241	1.198753e+01	0.021299	-4.813684e-01	-0.002640	6.094726e-03	0.000085	
777.254000	9.986901e-01	1404.967840	1.143047e+01	0.027789	-4.599289e-01	-0.003124	5.804385e-03	0.000108	
777.741000	9.969464e-01	1434.957134	7.955062e+00	0.008200	-3.272049e-01	-0.002222	4.168469e-03	0.000034	
778.229000	9.986041e-01	1411.827431	1.068790e+01	0.025454	-4.342487e-01	-0.002801	5.514732e-03	0.000100	
778.716000	9.984582e-01	1404.497596	1.162376e+01	0.026402	-4.712377e-01	-0.002999	6.003579e-03	0.000105	
779.203000	9.947406e-01	1406.337101	1.140014e+01	0.022555	-4.634751e-01	-0.002876	5.915703e-03	0.000088	
779.691000	9.978795e-01	1412.479136	1.071601e+01	0.025312	-4.378286e-01	-0.003245	5.598789e-03	0.000107	
780.178000	9.982008e-01	1414.801408	1.033235e+01	0.024032	-4.179004e-01	-0.002806	5.291630e-03	0.000096	
780.666000	9.980752e-01	1405.948203	1.141893e+01	0.027271	-4.622787e-01	-0.003145	5.874935e-03	0.000105	
781.153000	9.992776e-01	1409.283868	1.121538e+01	0.032232	-4.588862e-01	-0.003294	5.876136e-03	0.000126	
781.641000	9.986040e-01	1419.567101	9.754459e+00	0.025566	-3.957557e-01	-0.002849	5.001862e-03	0.000101	
782.128000	9.892163e-01	1420.906950	9.573591e+00	0.018155	-3.889440e-01	-0.002805	4.920140e-03	0.000082	
782.616000	9.975469e-01	1408.840026	1.105765e+01	0.024207	-4.458971e-01	-0.002945	5.636733e-03	0.000096	
783.103000	9.990950e-01	1405.899771	1.145611e+01	0.029748	-4.632988e-01	-0.003074	5.874484e-03	0.000115	
783.591000	9.989642e-01	1403.222622	1.183304e+01	0.031855	-4.821479e-01	-0.003404	6.160347e-03	0.000124	
784.079000	9.980677e-01	1421.150350	9.523931e+00	0.024179	-3.882441e-01	-0.002821	4.936570e-03	0.000097	
784.566000	9.971732e-01	1416.191366	1.016320e+01	0.022092	-4.130836e-01	-0.002463	5.256225e-03	0.000084	
785.054000	9.974667e-01	1423.661370	9.226278e+00	0.022059	-3.730432e-01	-0.002519	4.713595e-03	0.000084	
785.542000	9.990139e-01	1403.910359	1.170940e+01	0.031013	-4.735932e-01	-0.003263	6.017405e-03	0.000119	
786.030000	9.991076e-01	1402.994328	1.171124e+01	0.031700	-4.735378e-01	-0.003276	6.005769e-03	0.000121	
786.517000	9.977870e-01	1412.034571	1.055617e+01	0.024220	-4.264444e-01	-0.002687	5.391207e-03	0.000091	
787.005000	9.939550e-01	1406.960025	1.136717e+01	0.019747	-4.635878e-01	-0.002603	5.928313e-03	0.000081	
787.493000	9.969944e-01	1422.058894	9.517356e+00	0.021951	-3.899626e-01	-0.002857	4.979426e-03	0.000093	
787.981000	9.988896e-01	1408.105213	1.122161e+01	0.027976	-4.558222e-01	-0.002962	5.810669e-03	0.000109	
788.469000	9.987137e-01	1418.738372	1.008728e+01	0.026389	-4.170862e-01	-0.002934	5.370052e-03	0.000108	
788.957000	9.894794e-01	1398.782960	1.232548e+01	0.020909	-4.990149e-01	-0.003183	6.352137e-03	0.000091	
789.445000	9.979842e-01	1395.964793	1.245301e+01	0.027376	-4.963423e-01	-0.002963	6.233340e-03	0.000099	
789.933000	9.970011e-01	1430.492416	8.462520e+00	0.020388	-3.443923e-01	-0.002371	4.350441e-03	0.000078	
790.421000	9.990483e-01	1410.675939	1.082092e+01	0.030892	-4.406057e-01	-0.003180	5.611176e-03	0.000120	
790.909000	9.985853e-01	1389.350375	1.349103e+01	0.030157	-5.474439e-01	-0.003214	6.997459e-03	0.000115	
791.398000	9.990193e-01	1390.568486	1.336803e+01	0.032355	-5.392130e-01	-0.003411	6.846869e-03	0.000124	
791.886000	9.968137e-01	1413.453508	1.047316e+01	0.022027	-4.221210e-01	-0.002567	5.335339e-03	0.000083	
792.374000	9.982399e-01	1402.441380	1.192028e+01	0.027424	-4.858743e-01	-0.002940	6.218177e-03	0.000106	
792.862000	9.942392e-01	1488.973764	1.830270e+00	0.007746	-1.125740e-01	-0.001326	1.776044e-03	0.000078	
793.351000	9.982711e-01	1415.148002	1.013036e+01	0.025907	-4.058434e-01	-0.002971	5.079572e-03	0.000103	
793.839000	9.938727e-01	1406.234172	1.161927e+01	0.021530	-4.766854e-01	-0.003047	6.117914e-03	0.000091	
794.327000	9.961405e-01	1412.278340	1.068918e+01	0.021968	-4.329394e-01	-0.002711	5.495159e-03	0.000085	
794.816000	9.984298e-01	1412.861066	1.060860e+01	0.026954	-4.299845e-01	-0.003191	5.460968e-03	0.000109	
795.304000	9.987483e-01	1392.957050	1.303654e+01	0.031108	-5.278555e-01	-0.003296	6.723549e-03	0.000118	
795.793000	9.988026e-01	1382.941997	1.423166e+01	0.034905	-5.705222e-01	-0.003791	7.199870e-03	0.000131	
796.281000	9.977394e-01	1372.528238	1.589395e+01	0.029821	-6.509002e-01	-0.003279	8.379504e-03	0.000115	
796.770000	9.986624e-01	1415.547444	1.033713e+01	0.026648	-4.210646e-01	-0.002923	5.361160e-03	0.000104	
797.258000	9.990988e-01	1401.263400	1.209840e+01	0.032053	-4.909160e-01	-0.003344	6.248063e-03	0.000124	
797.747000	9.718165e-01	1421.831778	9.284189e+00	0.015829	-3.740066e-01	-0.002699	4.697970e-03	0.000074	
798.235000	9.809343e-01	1407.617940	1.119575e+01	0.018655	-4.497764e-01	-0.003064	5.659559e-03	0.000083	
798.724000	9.980191e-01	1425.753424	9.106075e+00	0.023832	-3.728149e-01	-0.002652	4.750190e-03	0.000092	
799.213000	9.985273e-01	1393.958146	1.307948e+01	0.028819	-5.329540e-01	-0.003134	6.827380e-03	0.000110	
799.701000	9.988193e-01	1390.628548	1.331967e+01	0.028796	-5.371581e-01	-0.003362	6.817931e-03	0.000117	
800.190000	9.915432e-01	1423.279002	9.284317e+00	0.019798	-3.779201e-01	-0.002669	4.791386e-03	0.000078	
800.679000	9.978543e-01	1422.711369	9.418266e+00	0.023923	-3.845997e-01	-0.002671	4.901778e-03	0.000091	
801.168000	9.977008e-01	1420.040856	9.747595e+00	0.023505	-3.970399e-01	-0.002634	5.051443e-03	0.000089	
801.657000	9.988251e-01	1404.999522	1.158879e+01	0.028289	-4.683953e-01	-0.003149	5.936529e-03	0.000110	
802.146000	9.987496e-01	1407.585652	1.123609e+01	0.028973	-4.587278e-01	-0.003084	5.855074e-03	0.000113	
802.635000	9.987256e-01	1404.660844	1.151862e+01	0.029220	-4.657342e-01	-0.003220	5.904392e-03	0.000115	
803.123000	9.989339e-01	1410.092143	1.090913e+01	0.028718	-4.394291e-01	-0.003027	5.540568e-03	0.000109	
803.612000	9.979565e-01	1419.859844	9.839527e+00	0.024997	-4.019604e-01	-0.002812	5.123464e-03	0.000096	
804.102000	9.983511e-01	1404.517869	1.166348e+01	0.025791	-4.766787e-01	-0.002945	6.103489e-03	0.000103	
804.591000	9.979579e-01	1420.020388	9.720028e+00	0.024657	-3.938608e-01	-0.002995	4.980237e-03	0.000102	
805.080000	5.724790e-01	1455.338135	5.476775e+00	0.018671	-2.270028e-01	-0.002956	2.842031e-03	0.000072	
805.569000	9.992480e-01	1398.884487	1.249457e+01	0.033973	-5.071812e-01	-0.003564	6.459318e-03	0.000132	
806.058000	9.990665e-01	1405.291914	1.142859e+01	0.030583	-4.632697e-01	-0.003129	5.890148e-03	0.000119	
806.547000	9.991701e-01	1390.746328	1.342334e+01	0.033324	-5.462006e-01	-0.003457	6.978618e-03	0.000127	
807.036000	9.979365e-01	1403.185641	1.185707e+01	0.026960	-4.810910e-01	-0.003322	6.115080e-03	0.000109	
807.526000	9.987742e-01	1398.155397	1.247879e+01	0.028516	-5.028511e-01	-0.003163	6.368861e-03	0.000112	
808.015000	9.990599e-01	1409.084103	1.110596e+01	0.030121	-4.500914e-01	-0.003156	5.723920e-03	0.000116	
808.504000	9.981549e-01	1404.084958	1.165277e+01	0.027204	-4.733803e-01	-0.003163	6.036288e-03	0.000109	
808.994000	9.987449e-01	1406.051507	1.151701e+01	0.027411	-4.711727e-01	-0.003072	6.021627e-03	0.000106	
809.483000	9.992308e-01	1401.325321	1.210628e+01	0.032979	-4.910830e-01	-0.003421	6.237935e-03	0.000129	
809.972000	9.978880e-01	1380.737174	1.452904e+01	0.028872	-5.810305e-01	-0.003184	7.329424e-03	0.000103	
810.462000	9.989468e-01	1403.190031	1.192185e+01	0.030233	-4.824869e-01	-0.003253	6.135795e-03	0.000118	
810.951000	9.986197e-01	1392.262077	1.317178e+01	0.030486	-5.358767e-01	-0.003418	6.850140e-03	0.000119	
811.441000	9.984639e-01	1391.427300	1.325772e+01	0.026669	-5.360741e-01	-0.003258	6.820173e-03	0.000111	
811.931000	9.963871e-01	1416.348796	1.026158e+01	0.022332	-4.176308e-01	-0.002971	5.311433e-03	0.000093	
812.420000	9.988795e-01	1396.345878	1.265720e+01	0.032168	-5.068871e-01	-0.003557	6.376624e-03	0.000122	
812.910000	9.991044e-01	1398.239511	1.233935e+01	0.032139	-4.994809e-01	-0.003349	6.355629e-03	0.000124	
813.399000	9.983016e-01	1402.632417	1.194211e+01	0.027107	-4.875132e-01	-0.003185	6.227847e-03	0.000109	
813.889000	9.918508e-01	1412.528130	1.065541e+01	0.020246	-4.322328e-01	-0.002839	5.481554e-03	0.000084	
814.379000	9.980000e-01	1396.776624	1.265688e+01	0.027713	-5.117437e-01	-0.003187	6.510827e-03	0.000109	
814.869000	9.980721e-01	1403.691131	1.175753e+01	0.026064	-4.764441e-01	-0.003053	6.066520e-03	0.000102	
815.358000	9.990995e-01	1383.727086	1.411613e+01	0.032907	-5.672839e-01	-0.003416	7.181772e-03	0.000125	
815.848000	9.864672e-01	1431.742149	8.238952e+00	0.016807	-3.378858e-01	-0.002465	4.273794e-03	0.000072	
816.338000	9.970279e-01	1407.917229	1.119803e+01	0.023537	-4.518698e-01	-0.002963	5.707160e-03	0.000095	
816.828000	9.972354e-01	1424.515918	9.401234e+00	0.021903	-3.855481e-01	-0.002571	4.927022e-03	0.000086	
817.318000	9.986484e-01	1392.844538	1.299380e+01	0.029745	-5.238835e-01	-0.003442	6.643965e-03	0.000117	
817.808000	9.990783e-01	1386.158745	1.361725e+01	0.033279	-5.422235e-01	-0.003508	6.798140e-03	0.000128	
818.298000	9.909021e-01	1432.026257	8.100358e+00	0.017246	-3.285190e-01	-0.002464	4.119721e-03	0.000073	
818.788000	9.974037e-01	1419.740838	1.005864e+01	0.022033	-4.172080e-01	-0.002703	5.381663e-03	0.000092	
819.278000	9.991543e-01	1408.090783	1.141538e+01	0.032343	-4.661845e-01	-0.003317	5.955458e-03	0.000126	
819.768000	9.992815e-01	1414.153399	1.062920e+01	0.033894	-4.382684e-01	-0.003569	5.622789e-03	0.000136	
820.258000	9.988767e-01	1403.217624	1.166117e+01	0.029199	-4.755592e-01	-0.003144	6.057582e-03	0.000113	
820.748000	9.989616e-01	1400.799053	1.210386e+01	0.029709	-4.946810e-01	-0.003171	6.318260e-03	0.000116	
821.239000	9.978025e-01	1398.140773	1.253582e+01	0.028781	-5.076094e-01	-0.003319	6.457690e-03	0.000111	
821.729000	9.990904e-01	1392.263019	1.308800e+01	0.034726	-5.265410e-01	-0.003701	6.659803e-03	0.000132	
