x=sensor temperature [°C], y= Integrationtime [ms], z=counts
NOTE: in the raw data .csv files Integrationtime is given in microseconds instead of milliseconds
thus the Integrationtime has to be devided by 1000 before using it as "y" with this calibration file. 
PIXEL SELECTION: pixels with FIT_RMSE > 3.25 (RMSE in training dataset) &  dead pixels with SELECT_RMSE > 25 (RMSE in selection dataset) should be excluded from further analysis.
z(x,y)= p00 + p10*x + p01*y + p20*x^2 + p11*x*y + p30*x^3 + p21*x^2*y
wvlngth	FIT_RMSE	SELECT_RMSE	p00	p10	p01	p20	p11	p30	p21
337.606000	2.559962e+00	NaN	1.429663e+03	8.816432	1.752381e-02	-0.358133	-2.337253e-03	0.004557	7.046785e-05	
338.062000	2.445455e+00	NaN	1.433439e+03	8.315708	1.502705e-02	-0.337526	-2.322900e-03	0.004246	6.241059e-05	
338.519000	2.761708e+00	NaN	1.400120e+03	12.303466	3.095188e-02	-0.490748	-3.353619e-03	0.006194	1.188318e-04	
338.975000	2.332624e+00	NaN	1.422317e+03	9.587227	1.955200e-02	-0.384850	-2.796797e-03	0.004870	8.226395e-05	
339.431000	2.863022e+00	NaN	1.427568e+03	8.980742	2.117599e-02	-0.361294	-2.595298e-03	0.004570	8.485353e-05	
339.888000	2.548737e+00	NaN	1.422304e+03	9.772375	1.639007e-02	-0.394731	-2.973820e-03	0.005021	7.430516e-05	
340.344000	2.621204e+00	NaN	1.401177e+03	12.333863	3.080069e-02	-0.496297	-3.217009e-03	0.006334	1.192809e-04	
340.801000	2.819964e+00	NaN	1.401850e+03	12.190676	3.016334e-02	-0.486142	-3.216396e-03	0.006146	1.182852e-04	
341.257000	2.523482e+00	NaN	1.440671e+03	7.296439	4.518912e-03	-0.295382	-2.061841e-03	0.003725	3.036845e-05	
341.714000	2.610433e+00	NaN	1.409382e+03	11.134050	2.374884e-02	-0.444338	-3.029299e-03	0.005623	9.597835e-05	
342.170000	2.616131e+00	NaN	1.413706e+03	10.763109	2.937999e-02	-0.432924	-3.058959e-03	0.005486	1.137535e-04	
342.627000	2.450623e+00	NaN	1.429124e+03	8.889315	1.797924e-02	-0.358602	-2.372158e-03	0.004565	7.367109e-05	
343.083000	2.723567e+00	NaN	1.394977e+03	12.911200	2.983405e-02	-0.514314	-3.238506e-03	0.006506	1.092842e-04	
343.540000	2.449141e+00	NaN	1.419509e+03	9.735092	2.875821e-02	-0.386187	-2.923182e-03	0.004856	1.058406e-04	
343.997000	2.549120e+00	NaN	1.415848e+03	10.527059	2.783808e-02	-0.423952	-2.927885e-03	0.005409	1.077265e-04	
344.453000	2.585139e+00	NaN	1.414521e+03	10.642917	2.487093e-02	-0.428759	-2.950475e-03	0.005441	9.797025e-05	
344.910000	2.495222e+00	NaN	1.439631e+03	7.641936	2.068476e-02	-0.312196	-2.499188e-03	0.004001	8.525617e-05	
345.367000	2.544757e+00	NaN	1.433572e+03	8.187289	2.171661e-02	-0.330277	-2.553262e-03	0.004185	8.396595e-05	
345.824000	2.534709e+00	NaN	1.430571e+03	8.646926	2.029289e-02	-0.349801	-2.427292e-03	0.004453	7.823205e-05	
346.281000	2.486477e+00	NaN	1.409863e+03	11.341858	2.764573e-02	-0.456660	-2.981910e-03	0.005819	1.064180e-04	
346.738000	2.502451e+00	NaN	1.420182e+03	9.972780	2.521259e-02	-0.398687	-2.755664e-03	0.005048	9.714472e-05	
347.194000	2.475789e+00	NaN	1.436043e+03	7.906408	1.540067e-02	-0.319522	-2.097667e-03	0.004077	6.008496e-05	
347.651000	2.660137e+00	NaN	1.406512e+03	11.686451	2.653177e-02	-0.472142	-3.020315e-03	0.006035	1.011889e-04	
348.108000	2.832916e+00	NaN	1.420636e+03	9.851318	2.004092e-02	-0.400921	-2.465801e-03	0.005127	8.483189e-05	
348.565000	2.595590e+00	NaN	1.441792e+03	7.241372	1.110097e-02	-0.291173	-2.311188e-03	0.003667	5.265372e-05	
349.022000	2.729178e+00	NaN	1.416555e+03	10.426811	2.863671e-02	-0.420933	-3.078921e-03	0.005371	1.125144e-04	
349.480000	2.640912e+00	NaN	1.420489e+03	9.822179	2.265484e-02	-0.392202	-2.635584e-03	0.004966	8.821449e-05	
349.937000	2.473281e+00	NaN	1.412847e+03	10.839847	2.842311e-02	-0.436868	-2.968490e-03	0.005555	1.091067e-04	
350.394000	2.490074e+00	NaN	1.423630e+03	9.441648	1.842505e-02	-0.376571	-2.804265e-03	0.004740	8.181335e-05	
350.851000	2.773619e+00	NaN	1.425517e+03	9.314876	2.326847e-02	-0.373446	-2.896321e-03	0.004720	9.614252e-05	
351.308000	2.709128e+00	NaN	1.410363e+03	11.032402	3.046218e-02	-0.439285	-3.146106e-03	0.005547	1.161310e-04	
351.765000	2.766375e+00	NaN	1.418734e+03	9.884394	2.469721e-02	-0.391878	-2.654634e-03	0.004931	9.396178e-05	
352.223000	2.776605e+00	NaN	1.399525e+03	12.266190	3.076623e-02	-0.486706	-3.173321e-03	0.006150	1.144567e-04	
352.680000	2.558845e+00	NaN	1.414523e+03	10.664525	2.226001e-02	-0.429420	-2.761686e-03	0.005456	8.575947e-05	
353.137000	2.764509e+00	NaN	1.431226e+03	8.527201	2.001055e-02	-0.339166	-2.326138e-03	0.004251	7.491926e-05	
353.595000	2.500479e+00	NaN	1.419000e+03	10.068145	2.573141e-02	-0.403721	-2.817415e-03	0.005119	1.015803e-04	
354.052000	2.684660e+00	NaN	1.414929e+03	10.359894	2.576834e-02	-0.409328	-2.997480e-03	0.005131	1.004687e-04	
354.510000	2.768762e+00	NaN	1.412508e+03	10.825181	1.960512e-02	-0.435104	-2.608410e-03	0.005540	7.237969e-05	
354.967000	2.428969e+00	NaN	1.424383e+03	9.366734	1.702623e-02	-0.375615	-2.304515e-03	0.004770	6.605106e-05	
355.425000	2.558641e+00	NaN	1.420071e+03	9.922397	2.505005e-02	-0.399426	-2.952507e-03	0.005073	1.023823e-04	
355.882000	2.603031e+00	NaN	1.421274e+03	9.690908	2.471987e-02	-0.384761	-2.684096e-03	0.004833	9.516772e-05	
356.340000	2.638307e+00	NaN	1.411044e+03	11.125231	2.857888e-02	-0.450063	-3.067811e-03	0.005768	1.102738e-04	
356.797000	2.607383e+00	NaN	1.430269e+03	8.718959	2.174791e-02	-0.351920	-2.463555e-03	0.004466	8.621623e-05	
357.255000	2.544423e+00	NaN	1.405020e+03	11.960389	2.861079e-02	-0.483970	-3.123244e-03	0.006205	1.104011e-04	
357.713000	2.706762e+00	NaN	1.406708e+03	11.433451	2.453501e-02	-0.452663	-2.808542e-03	0.005693	9.279190e-05	
358.170000	2.913675e+00	NaN	1.407183e+03	11.597465	2.975436e-02	-0.466704	-3.171539e-03	0.005952	1.155174e-04	
358.628000	2.443122e+00	NaN	1.422094e+03	9.754385	2.289547e-02	-0.392544	-2.579611e-03	0.004984	9.033972e-05	
359.086000	2.651026e+00	NaN	1.407426e+03	11.366566	3.017893e-02	-0.455045	-3.183520e-03	0.005745	1.167235e-04	
359.544000	2.561583e+00	NaN	1.424889e+03	9.323084	2.403876e-02	-0.373440	-2.708735e-03	0.004722	9.484516e-05	
360.002000	2.460976e+00	NaN	1.440075e+03	7.621346	2.270440e-02	-0.313038	-3.017261e-03	0.004036	9.949971e-05	
360.459000	2.710440e+00	NaN	1.414060e+03	10.656172	2.592891e-02	-0.426073	-2.795642e-03	0.005390	1.040226e-04	
360.917000	2.513614e+00	NaN	1.418177e+03	10.114958	2.416303e-02	-0.406243	-2.651055e-03	0.005171	9.239337e-05	
361.375000	2.807085e+00	NaN	1.408715e+03	11.346378	2.393666e-02	-0.454410	-2.966576e-03	0.005783	9.826989e-05	
361.833000	2.776068e+00	NaN	1.405154e+03	11.637427	2.949433e-02	-0.461921	-3.047698e-03	0.005808	1.117766e-04	
362.291000	2.552241e+00	NaN	1.426507e+03	9.043032	2.062450e-02	-0.360470	-2.619429e-03	0.004540	8.076166e-05	
362.749000	2.707548e+00	NaN	1.417688e+03	10.063924	2.098974e-02	-0.401382	-2.965418e-03	0.005061	9.088773e-05	
363.207000	2.631153e+00	NaN	1.414689e+03	10.441605	2.288358e-02	-0.415866	-2.540566e-03	0.005246	8.537062e-05	
363.665000	2.609638e+00	NaN	1.418381e+03	9.940792	2.704675e-02	-0.398390	-2.859067e-03	0.005023	1.037184e-04	
364.124000	2.653297e+00	NaN	1.421752e+03	9.733586	2.723233e-02	-0.392967	-2.822441e-03	0.004977	1.049896e-04	
364.582000	2.704320e+00	NaN	1.406563e+03	11.630591	2.712859e-02	-0.470400	-2.927372e-03	0.006021	1.041275e-04	
365.040000	2.552261e+00	NaN	1.436823e+03	7.813044	1.431759e-02	-0.314476	-2.157963e-03	0.003978	6.032060e-05	
365.498000	2.553808e+00	NaN	1.420293e+03	9.923253	1.516715e-02	-0.400482	-2.846842e-03	0.005100	6.930708e-05	
365.957000	2.881361e+00	NaN	1.421126e+03	9.937395	3.854783e-03	-0.408163	-2.972474e-03	0.005249	5.102153e-05	
366.415000	2.613986e+00	NaN	1.429590e+03	8.642956	1.692813e-02	-0.345320	-2.398916e-03	0.004352	7.124301e-05	
366.873000	2.495069e+00	NaN	1.418764e+03	10.119842	2.097803e-02	-0.409388	-2.481230e-03	0.005240	8.193017e-05	
367.332000	2.547971e+00	NaN	1.416223e+03	10.340711	2.770712e-02	-0.412694	-3.178528e-03	0.005207	1.123318e-04	
367.790000	2.495441e+00	NaN	1.409219e+03	11.187189	3.066773e-02	-0.446518	-3.203368e-03	0.005627	1.183241e-04	
368.248000	2.788968e+00	NaN	1.412844e+03	10.873731	3.013467e-02	-0.440661	-3.102236e-03	0.005653	1.150125e-04	
368.707000	2.584842e+00	NaN	1.419861e+03	9.819574	1.841337e-02	-0.391277	-2.479657e-03	0.004931	7.037909e-05	
369.165000	2.502237e+00	NaN	1.428077e+03	9.059741	2.193301e-02	-0.370681	-2.566191e-03	0.004756	8.818843e-05	
369.624000	2.476754e+00	NaN	1.411938e+03	10.891868	2.510763e-02	-0.436166	-2.727995e-03	0.005541	9.499253e-05	
370.083000	2.606763e+00	NaN	1.417584e+03	10.219859	2.711373e-02	-0.409261	-3.043298e-03	0.005198	1.058442e-04	
370.541000	2.691087e+00	NaN	1.421508e+03	9.748925	2.593628e-02	-0.390177	-2.863441e-03	0.004938	9.947740e-05	
371.000000	2.619923e+00	NaN	1.404460e+03	11.797516	2.622212e-02	-0.472473	-2.956180e-03	0.006004	1.017510e-04	
371.458000	2.680491e+00	NaN	1.420154e+03	9.669511	1.872113e-02	-0.385919	-2.999149e-03	0.004859	8.668906e-05	
371.917000	2.553372e+00	NaN	1.433574e+03	8.122199	1.579148e-02	-0.322683	-2.555597e-03	0.004048	7.274024e-05	
372.376000	2.546900e+00	NaN	1.430143e+03	8.700240	2.343826e-02	-0.348472	-2.777935e-03	0.004394	9.221312e-05	
372.835000	2.547651e+00	NaN	1.415566e+03	10.444128	2.394149e-02	-0.419605	-2.724691e-03	0.005334	9.299127e-05	
373.293000	2.755216e+00	NaN	1.394257e+03	13.137089	3.214512e-02	-0.523157	-3.578386e-03	0.006612	1.155756e-04	
373.752000	2.830995e+00	NaN	1.411286e+03	10.829669	2.505834e-02	-0.429584	-2.828785e-03	0.005412	9.946833e-05	
374.211000	2.575542e+00	NaN	1.403291e+03	11.936375	2.845884e-02	-0.479253	-3.085356e-03	0.006103	1.118769e-04	
374.670000	2.983685e+00	NaN	1.407409e+03	11.367013	2.683267e-02	-0.451565	-2.847958e-03	0.005708	1.003777e-04	
375.129000	2.685412e+00	NaN	1.432201e+03	8.378958	2.222348e-02	-0.335506	-2.651109e-03	0.004241	8.778218e-05	
375.588000	2.589633e+00	NaN	1.403972e+03	11.867830	3.106183e-02	-0.473052	-3.211431e-03	0.005985	1.138680e-04	
376.047000	2.650413e+00	NaN	1.403162e+03	11.844277	2.566877e-02	-0.469174	-3.033158e-03	0.005922	1.013916e-04	
376.506000	2.596065e+00	NaN	1.420659e+03	9.855465	2.040878e-02	-0.401111	-2.586018e-03	0.005128	7.925780e-05	
376.965000	2.672341e+00	NaN	1.396771e+03	12.603540	2.990250e-02	-0.499294	-3.271728e-03	0.006277	1.136822e-04	
377.424000	2.543608e+00	NaN	1.405855e+03	11.489296	2.800508e-02	-0.454752	-2.987794e-03	0.005729	1.084541e-04	
377.883000	2.541085e+00	NaN	1.422667e+03	9.577071	2.066063e-02	-0.387093	-2.516368e-03	0.004941	7.921703e-05	
378.343000	2.640139e+00	NaN	1.425420e+03	9.270075	2.458336e-02	-0.373571	-2.721167e-03	0.004745	9.587078e-05	
378.802000	4.427388e+00	NaN	1.270885e+03	28.077485	5.535464e-02	-1.106560	-5.505650e-03	0.013910	1.716852e-04	
379.261000	2.930843e+00	NaN	1.399946e+03	12.207596	2.948500e-02	-0.486986	-2.985653e-03	0.006189	1.090674e-04	
379.720000	2.708592e+00	2.970426	1.407144e+03	11.502355	2.634308e-02	-0.458952	-2.953032e-03	0.005814	1.008188e-04	
380.180000	2.749569e+00	4.220882	1.420717e+03	9.868217	2.252937e-02	-0.399192	-2.466129e-03	0.005111	8.894291e-05	
380.639000	2.812433e+00	8.130846	1.398538e+03	12.520156	3.209618e-02	-0.501798	-3.334665e-03	0.006397	1.237164e-04	
381.098000	2.704591e+00	3.100293	1.422922e+03	9.564445	2.421861e-02	-0.386626	-2.618629e-03	0.004938	9.355869e-05	
381.558000	2.466891e+00	4.304983	1.421446e+03	9.800135	2.624041e-02	-0.394247	-2.803846e-03	0.005010	1.005145e-04	
382.017000	2.560735e+00	4.559644	1.422578e+03	9.484689	2.446085e-02	-0.378342	-2.744187e-03	0.004755	9.649691e-05	
382.477000	2.512459e+00	3.210130	1.416148e+03	10.185246	2.665944e-02	-0.403621	-2.874377e-03	0.005079	1.023067e-04	
382.936000	2.495114e+00	3.365888	1.410794e+03	11.125453	2.746812e-02	-0.446100	-2.959744e-03	0.005662	1.064997e-04	
383.396000	2.524559e+00	3.061500	1.412956e+03	10.830126	2.975389e-02	-0.434080	-3.151312e-03	0.005516	1.156213e-04	
383.855000	2.587676e+00	2.509629	1.418046e+03	10.139361	2.201127e-02	-0.408750	-2.599126e-03	0.005224	8.612833e-05	
384.315000	2.450990e+00	4.227908	1.435658e+03	8.051996	2.173196e-02	-0.328037	-2.494347e-03	0.004203	8.594080e-05	
384.775000	2.472750e+00	5.129495	1.413802e+03	10.728952	2.431536e-02	-0.430476	-2.743700e-03	0.005485	9.555909e-05	
385.234000	2.917838e+00	5.277233	1.415764e+03	10.461262	2.118222e-02	-0.418207	-2.539600e-03	0.005284	8.091386e-05	
385.694000	2.665712e+00	3.717105	1.430081e+03	8.807173	2.010371e-02	-0.358753	-2.518964e-03	0.004605	8.071662e-05	
386.154000	2.936646e+00	4.553380	1.410923e+03	10.901032	2.861558e-02	-0.433023	-3.047142e-03	0.005459	1.159780e-04	
386.613000	2.549022e+00	4.502680	1.424192e+03	9.342659	2.378268e-02	-0.373180	-2.690290e-03	0.004730	9.302419e-05	
387.073000	2.532223e+00	6.833993	1.417520e+03	10.038285	1.721741e-02	-0.399668	-2.429126e-03	0.005039	6.874175e-05	
387.533000	2.913233e+00	6.929651	1.397892e+03	12.429434	2.852955e-02	-0.501412	-2.943169e-03	0.006337	1.062264e-04	
387.993000	2.923531e+00	5.204906	1.407782e+03	11.300604	2.906299e-02	-0.453792	-3.011603e-03	0.005774	1.088791e-04	
388.453000	2.595527e+00	4.525996	1.437800e+03	7.565600	1.610479e-02	-0.301916	-2.420027e-03	0.003796	6.500018e-05	
388.913000	2.372113e+00	4.118413	1.414977e+03	10.506357	2.840727e-02	-0.425067	-2.950228e-03	0.005448	1.146013e-04	
389.373000	2.740686e+00	5.787819	1.393859e+03	13.037557	3.067967e-02	-0.519634	-3.225142e-03	0.006586	1.187473e-04	
389.833000	2.955468e+00	5.243413	1.389778e+03	13.504876	3.131766e-02	-0.534304	-3.306468e-03	0.006744	1.140446e-04	
390.293000	2.528002e+00	2.686759	1.424554e+03	9.311231	1.962438e-02	-0.375067	-2.928663e-03	0.004761	8.556966e-05	
390.753000	2.637424e+00	3.066915	1.410952e+03	11.084479	2.862968e-02	-0.446316	-3.204285e-03	0.005682	1.116022e-04	
391.213000	2.780559e+00	4.905283	1.402539e+03	11.938948	2.539481e-02	-0.477971	-2.878199e-03	0.006056	9.845823e-05	
391.673000	2.622791e+00	3.888726	1.410185e+03	11.088609	2.337341e-02	-0.443113	-2.760082e-03	0.005614	9.184214e-05	
392.133000	2.538127e+00	3.346015	1.415443e+03	10.489548	2.634982e-02	-0.419610	-3.058190e-03	0.005310	1.071520e-04	
392.593000	2.519892e+00	4.106761	1.428726e+03	8.896205	2.219082e-02	-0.360659	-2.533960e-03	0.004618	8.449648e-05	
393.054000	2.452539e+00	5.597760	1.416011e+03	10.544893	2.566748e-02	-0.424552	-2.865489e-03	0.005375	1.018930e-04	
393.514000	2.465109e+00	3.899627	1.417921e+03	10.412616	2.208483e-02	-0.421665	-2.890764e-03	0.005387	8.886283e-05	
393.974000	2.687081e+00	5.455640	1.400952e+03	12.291229	3.212563e-02	-0.489271	-3.286431e-03	0.006193	1.239028e-04	
394.435000	2.412349e+00	3.686120	1.464570e+03	4.454072	1.673634e-03	-0.183146	-1.275792e-03	0.002323	1.052400e-05	
394.895000	2.501405e+00	4.316394	1.407993e+03	11.397691	2.801585e-02	-0.459251	-3.087849e-03	0.005867	1.091355e-04	
395.355000	2.561207e+00	5.798408	1.408922e+03	11.279471	2.813988e-02	-0.451447	-3.145495e-03	0.005706	1.104866e-04	
395.816000	2.671859e+00	2.999957	1.405731e+03	11.753944	3.057958e-02	-0.474916	-3.137337e-03	0.006081	1.167626e-04	
396.276000	2.586605e+00	4.912633	1.407525e+03	11.371011	2.803537e-02	-0.453341	-2.884336e-03	0.005732	1.061037e-04	
396.737000	2.758275e+00	3.759708	1.419350e+03	10.066016	2.512348e-02	-0.404785	-2.931888e-03	0.005149	9.640990e-05	
397.197000	3.672831e+00	6.343206	1.411265e+03	10.933443	2.922964e-02	-0.432804	-3.117938e-03	0.005439	1.112305e-04	
397.658000	3.135399e+00	3.909830	1.373827e+03	15.366695	3.289811e-02	-0.605473	-3.805408e-03	0.007603	1.123551e-04	
398.119000	2.687526e+00	8.215726	1.410766e+03	10.879858	2.553286e-02	-0.431199	-2.796895e-03	0.005424	9.870872e-05	
398.579000	2.858183e+00	5.142937	1.421959e+03	9.628304	1.449283e-02	-0.387136	-3.090923e-03	0.004925	8.692147e-05	
399.040000	2.601210e+00	3.230833	1.406635e+03	11.527857	2.906936e-02	-0.463477	-2.980783e-03	0.005918	1.115972e-04	
399.501000	2.559930e+00	3.067944	1.432680e+03	8.245864	2.167959e-02	-0.330795	-2.557703e-03	0.004182	8.962246e-05	
399.961000	2.749068e+00	3.336346	1.401901e+03	12.089578	3.016342e-02	-0.484998	-3.137567e-03	0.006161	1.152643e-04	
400.422000	2.664109e+00	3.891921	1.396208e+03	12.845302	2.966863e-02	-0.512703	-3.075542e-03	0.006507	1.114725e-04	
400.883000	2.604426e+00	3.020051	1.415111e+03	10.419107	2.885746e-02	-0.414076	-2.921245e-03	0.005208	1.070695e-04	
401.344000	2.685750e+00	4.068790	1.395085e+03	13.037537	3.108035e-02	-0.522017	-3.404235e-03	0.006640	1.199840e-04	
401.805000	2.492139e+00	3.919620	1.412366e+03	10.907555	2.496049e-02	-0.437722	-2.880017e-03	0.005564	9.997215e-05	
402.265000	2.765544e+00	4.705474	1.409417e+03	11.266597	2.343986e-02	-0.453142	-2.592474e-03	0.005788	8.985838e-05	
402.726000	2.607162e+00	3.999989	1.412513e+03	10.766917	2.481739e-02	-0.427904	-2.752850e-03	0.005395	9.515188e-05	
403.187000	3.200717e+00	6.944696	1.443426e+03	7.198791	2.201411e-02	-0.294293	-2.653983e-03	0.003760	9.827277e-05	
403.648000	2.426076e+00	6.063907	1.430550e+03	8.605437	2.136795e-02	-0.345519	-2.395387e-03	0.004361	8.260097e-05	
404.109000	2.409031e+00	6.517827	1.425998e+03	9.173738	2.274407e-02	-0.367781	-2.608580e-03	0.004660	8.840315e-05	
404.571000	2.546498e+00	4.329256	1.406364e+03	11.564029	2.742428e-02	-0.463267	-3.069431e-03	0.005876	1.041468e-04	
405.032000	2.618882e+00	4.232972	1.420219e+03	9.876939	2.510286e-02	-0.399748	-2.846050e-03	0.005101	1.006592e-04	
405.493000	2.719599e+00	3.755717	1.423033e+03	9.412968	2.512256e-02	-0.376845	-2.727430e-03	0.004756	9.908234e-05	
405.954000	2.523323e+00	2.693364	1.416138e+03	10.221136	2.337132e-02	-0.405593	-2.691425e-03	0.005105	9.037427e-05	
406.415000	2.629771e+00	5.256846	1.414741e+03	10.546429	2.017451e-02	-0.422400	-2.541343e-03	0.005356	7.799000e-05	
406.876000	2.598322e+00	3.492452	1.399063e+03	12.461690	3.088544e-02	-0.498620	-3.243797e-03	0.006328	1.179747e-04	
407.338000	2.695287e+00	4.880395	1.422229e+03	9.639234	2.368753e-02	-0.389012	-2.589462e-03	0.004966	9.388289e-05	
407.799000	2.473002e+00	3.506247	1.419489e+03	9.895081	2.455424e-02	-0.395177	-2.720301e-03	0.005004	9.334729e-05	
408.260000	2.530966e+00	4.099311	1.421888e+03	9.675697	2.771733e-02	-0.386996	-2.883502e-03	0.004895	1.069435e-04	
408.722000	2.773025e+00	3.872249	1.426267e+03	9.305840	1.128912e-02	-0.378808	-2.548584e-03	0.004869	6.038583e-05	
409.183000	2.864791e+00	5.646484	1.405240e+03	11.814309	3.011761e-02	-0.473171	-3.190475e-03	0.006011	1.129944e-04	
409.644000	2.534058e+00	5.866161	1.428082e+03	8.829429	2.431070e-02	-0.354692	-2.763421e-03	0.004503	9.549170e-05	
410.106000	2.625461e+00	4.631674	1.415975e+03	10.304722	2.753989e-02	-0.411377	-2.865212e-03	0.005203	1.066979e-04	
410.567000	2.615551e+00	4.121343	1.401504e+03	12.263717	2.914425e-02	-0.495826	-3.178459e-03	0.006360	1.142137e-04	
411.029000	2.542748e+00	2.686887	1.421642e+03	9.856301	2.354087e-02	-0.400344	-2.747424e-03	0.005132	9.207654e-05	
411.491000	2.548818e+00	5.160238	1.418469e+03	10.173297	2.084008e-02	-0.410645	-2.701208e-03	0.005234	8.466704e-05	
411.952000	2.559348e+00	4.171764	1.429897e+03	8.626309	2.276057e-02	-0.345399	-2.595269e-03	0.004352	9.045427e-05	
412.414000	2.607517e+00	5.879673	1.402275e+03	11.978492	3.109494e-02	-0.478683	-3.246317e-03	0.006026	1.199374e-04	
412.875000	2.614235e+00	8.880774	1.397956e+03	12.591354	3.091900e-02	-0.503305	-3.326142e-03	0.006387	1.158220e-04	
413.337000	2.787302e+00	4.251126	1.388237e+03	13.736127	3.521410e-02	-0.546070	-3.561034e-03	0.006915	1.274274e-04	
413.799000	2.539416e+00	4.973869	1.423898e+03	9.385690	2.336919e-02	-0.373645	-2.651789e-03	0.004708	9.193548e-05	
414.261000	2.627007e+00	3.514248	1.418047e+03	10.083102	2.353421e-02	-0.403466	-2.640007e-03	0.005112	8.883290e-05	
414.722000	2.914351e+00	4.083903	1.407352e+03	11.418318	2.805276e-02	-0.456043	-3.021390e-03	0.005784	1.061921e-04	
415.184000	2.534911e+00	4.963239	1.421910e+03	9.717534	2.623608e-02	-0.392128	-2.757745e-03	0.004995	1.012199e-04	
415.646000	2.806159e+00	5.280752	1.409595e+03	10.985217	2.740488e-02	-0.440674	-2.933608e-03	0.005606	1.043564e-04	
416.108000	2.628908e+00	4.499244	1.396762e+03	12.514553	2.740503e-02	-0.496378	-3.147708e-03	0.006271	1.053023e-04	
416.570000	2.576598e+00	6.913189	1.408991e+03	11.072879	2.959301e-02	-0.446164	-3.186058e-03	0.005597	1.152559e-04	
417.032000	2.619546e+00	5.611627	1.382152e+03	14.412501	3.537589e-02	-0.570768	-3.743107e-03	0.007208	1.362160e-04	
417.494000	2.736889e+00	3.443648	1.413398e+03	10.669782	2.155022e-02	-0.428563	-2.677322e-03	0.005460	8.576081e-05	
417.956000	2.913595e+00	3.382489	1.415258e+03	10.509717	2.816782e-02	-0.425729	-2.975233e-03	0.005454	1.093167e-04	
418.418000	2.659447e+00	6.204843	1.403126e+03	11.849063	2.821961e-02	-0.472493	-3.296858e-03	0.005968	1.127266e-04	
418.880000	2.652392e+00	4.208185	1.436621e+03	7.918456	7.641141e-03	-0.322793	-2.451213e-03	0.004141	5.229716e-05	
419.342000	2.420302e+00	4.220331	1.435756e+03	7.876291	1.708698e-02	-0.315921	-2.251398e-03	0.004006	6.620962e-05	
419.804000	2.579346e+00	4.592861	1.393264e+03	13.153241	3.041561e-02	-0.526376	-3.233828e-03	0.006687	1.150255e-04	
420.267000	2.924823e+00	9.612767	1.412629e+03	10.745379	2.745678e-02	-0.430897	-2.884231e-03	0.005475	1.044637e-04	
420.729000	2.678466e+00	5.574824	1.411643e+03	10.909992	2.087237e-02	-0.438479	-2.846132e-03	0.005577	8.675503e-05	
421.191000	2.571704e+00	5.827049	1.411309e+03	10.938904	2.149342e-02	-0.439160	-2.846980e-03	0.005589	8.956712e-05	
421.653000	2.728883e+00	3.861603	1.404256e+03	11.694738	2.916833e-02	-0.466814	-3.051641e-03	0.005913	1.090537e-04	
422.116000	2.546661e+00	4.229498	1.435283e+03	8.006119	1.179882e-02	-0.324326	-2.040379e-03	0.004152	4.757583e-05	
422.578000	2.810782e+00	4.914098	1.417919e+03	10.139596	2.299541e-02	-0.409501	-2.668128e-03	0.005231	8.786040e-05	
423.041000	2.547849e+00	5.110353	1.408163e+03	11.414209	2.807186e-02	-0.459614	-3.138877e-03	0.005862	1.119553e-04	
423.503000	2.506772e+00	3.829604	1.401885e+03	12.025408	3.135631e-02	-0.479578	-3.231422e-03	0.006068	1.194045e-04	
423.965000	2.684279e+00	3.761125	1.401072e+03	12.163412	2.534902e-02	-0.488415	-3.013210e-03	0.006214	9.763031e-05	
424.428000	2.511246e+00	3.248240	1.422209e+03	9.755500	2.241320e-02	-0.398739	-2.665785e-03	0.005133	8.800163e-05	
424.890000	2.611723e+00	6.746900	1.401536e+03	12.098462	3.157141e-02	-0.482324	-3.227505e-03	0.006100	1.198504e-04	
425.353000	2.599246e+00	3.497223	1.412535e+03	10.937228	2.698992e-02	-0.440536	-2.885800e-03	0.005618	1.083658e-04	
425.816000	2.651876e+00	5.575332	1.404094e+03	11.652497	2.529161e-02	-0.461549	-2.777828e-03	0.005818	9.601681e-05	
426.278000	2.429615e+00	3.905843	1.425177e+03	9.232777	1.609341e-02	-0.370958	-2.315165e-03	0.004711	6.337228e-05	
426.741000	2.635566e+00	5.480641	1.411877e+03	10.895843	2.876049e-02	-0.435514	-3.019874e-03	0.005513	1.107887e-04	
427.204000	2.628982e+00	6.705550	1.410899e+03	11.083572	2.647034e-02	-0.449273	-2.815245e-03	0.005765	1.040807e-04	
427.666000	2.674830e+00	4.838465	1.404794e+03	11.546916	2.531630e-02	-0.459177	-2.849660e-03	0.005810	9.720960e-05	
428.129000	2.713804e+00	5.279488	1.411952e+03	10.782905	2.421166e-02	-0.432625	-2.782176e-03	0.005486	9.039135e-05	
428.592000	2.686303e+00	2.649206	1.412073e+03	10.822389	2.310438e-02	-0.434396	-2.843422e-03	0.005519	9.084953e-05	
429.055000	2.736006e+00	4.062830	1.395239e+03	12.773376	3.056204e-02	-0.509965	-3.113992e-03	0.006456	1.140803e-04	
429.518000	2.587982e+00	5.988616	1.416826e+03	10.326334	2.232507e-02	-0.416428	-2.768004e-03	0.005314	9.150044e-05	
429.981000	2.640105e+00	4.179389	1.417781e+03	10.023476	2.685996e-02	-0.399378	-2.909531e-03	0.005052	1.033361e-04	
430.443000	2.738801e+00	2.971484	1.393819e+03	13.000557	3.639590e-02	-0.516123	-3.636664e-03	0.006521	1.376501e-04	
430.906000	2.791584e+00	4.525682	1.390679e+03	13.449845	3.003570e-02	-0.540408	-3.197708e-03	0.006893	1.157999e-04	
431.369000	2.827788e+00	2.914976	1.407364e+03	11.348975	2.450514e-02	-0.454622	-2.812002e-03	0.005783	9.873688e-05	
431.832000	2.618673e+00	7.201809	1.421896e+03	9.633343	2.664511e-02	-0.385045	-2.908972e-03	0.004881	1.052517e-04	
432.296000	2.758303e+00	5.168822	1.419805e+03	9.809270	2.668304e-02	-0.394005	-2.795919e-03	0.005008	1.025775e-04	
432.759000	2.702620e+00	4.718275	1.412365e+03	10.537299	3.144658e-02	-0.416285	-3.196572e-03	0.005226	1.192335e-04	
433.222000	2.705328e+00	4.082127	1.411846e+03	10.953521	2.124851e-02	-0.444114	-2.706064e-03	0.005706	8.415749e-05	
433.685000	2.722739e+00	4.998278	1.411747e+03	10.842312	2.036151e-02	-0.434014	-2.460040e-03	0.005521	7.869500e-05	
434.148000	2.585795e+00	5.002698	1.412635e+03	10.903212	2.756846e-02	-0.441158	-2.978636e-03	0.005664	1.070657e-04	
434.611000	2.568989e+00	2.984120	1.408733e+03	11.339369	3.053518e-02	-0.456144	-3.179364e-03	0.005813	1.193272e-04	
435.075000	2.458303e+00	2.619493	1.424434e+03	9.576746	1.817578e-02	-0.390252	-2.345383e-03	0.005032	7.637822e-05	
435.538000	2.604441e+00	5.738208	1.399570e+03	12.489206	2.861856e-02	-0.501164	-3.029391e-03	0.006379	1.093672e-04	
436.001000	2.706755e+00	2.579201	1.415528e+03	10.337107	2.398164e-02	-0.411552	-2.984027e-03	0.005183	1.051521e-04	
436.465000	2.635246e+00	8.516186	1.427568e+03	9.028351	2.103354e-02	-0.365055	-2.419165e-03	0.004666	8.088430e-05	
436.928000	4.055524e+00	9.389905	1.527367e+03	-3.271225	2.791027e-04	0.116541	-6.432919e-04	-0.001372	3.957096e-05	
437.391000	2.597089e+00	3.208585	1.414974e+03	10.487252	2.575771e-02	-0.418243	-2.988596e-03	0.005293	1.011482e-04	
437.855000	2.568918e+00	2.810905	1.419937e+03	9.970356	1.387644e-02	-0.406485	-2.345726e-03	0.005229	5.863565e-05	
438.318000	2.623103e+00	3.515941	1.427565e+03	8.845633	2.565152e-02	-0.352764	-2.809973e-03	0.004444	1.004025e-04	
438.782000	2.639498e+00	4.280572	1.402811e+03	11.950970	2.823554e-02	-0.476510	-3.183280e-03	0.006030	1.111160e-04	
439.245000	2.568892e+00	4.097095	1.419117e+03	10.141061	2.869764e-02	-0.412198	-3.027066e-03	0.005294	1.116464e-04	
439.709000	2.675341e+00	3.885798	1.403948e+03	11.982431	2.872652e-02	-0.480652	-3.062127e-03	0.006109	1.102300e-04	
440.173000	2.416380e+00	3.729052	1.454636e+03	5.599579	8.328933e-03	-0.229813	-1.489979e-03	0.002938	3.129217e-05	
440.636000	2.689328e+00	4.218961	1.421224e+03	9.762058	1.922979e-02	-0.396425	-2.534480e-03	0.005090	7.215378e-05	
441.100000	2.567283e+00	3.295884	1.413558e+03	10.659386	2.852985e-02	-0.425037	-3.157821e-03	0.005372	1.139435e-04	
441.564000	2.574845e+00	8.191339	1.410743e+03	10.958558	2.870592e-02	-0.439810	-3.014343e-03	0.005592	1.122730e-04	
442.028000	2.474193e+00	3.615024	1.435903e+03	7.856650	1.900004e-02	-0.313097	-2.262828e-03	0.003937	7.260315e-05	
442.491000	2.766577e+00	4.240824	1.398533e+03	12.517200	3.263943e-02	-0.502109	-3.487686e-03	0.006411	1.265084e-04	
442.955000	2.510558e+00	3.763690	1.411683e+03	10.890084	2.757060e-02	-0.437666	-2.939744e-03	0.005582	1.047526e-04	
443.419000	2.538407e+00	4.865523	1.418579e+03	10.043850	2.521706e-02	-0.402590	-2.887579e-03	0.005118	9.898847e-05	
443.883000	2.828648e+00	5.976817	1.422167e+03	9.665587	1.946329e-02	-0.386631	-2.256369e-03	0.004907	7.604576e-05	
444.347000	1.187386e+01	2.660063	1.351831e+03	18.206019	3.606392e-02	-0.721601	-3.964646e-03	0.009077	1.115535e-04	
444.811000	2.510410e+00	3.868060	1.408408e+03	11.370894	2.760503e-02	-0.458136	-3.003620e-03	0.005858	1.055561e-04	
445.275000	2.586331e+00	4.949199	1.404562e+03	11.739237	3.151057e-02	-0.468618	-3.185357e-03	0.005948	1.195497e-04	
445.739000	2.474318e+00	3.672122	1.436640e+03	7.882849	9.741696e-03	-0.318517	-2.021031e-03	0.004069	4.680214e-05	
446.203000	2.640621e+00	3.192989	1.410883e+03	10.872837	2.735780e-02	-0.432771	-2.958706e-03	0.005460	1.073494e-04	
446.667000	2.751692e+00	5.945787	1.404130e+03	11.746874	2.847967e-02	-0.466384	-3.038734e-03	0.005893	1.105189e-04	
447.131000	2.620011e+00	4.156844	1.397643e+03	12.723387	2.906758e-02	-0.510701	-3.166932e-03	0.006519	1.105979e-04	
447.595000	2.563219e+00	3.403511	1.424578e+03	9.514343	2.456324e-02	-0.388427	-2.703022e-03	0.005004	9.713647e-05	
448.060000	2.947706e+00	4.648800	1.425902e+03	9.013098	2.015626e-02	-0.363668	-2.526319e-03	0.004568	7.490172e-05	
448.524000	2.658757e+00	2.485686	1.412001e+03	10.628273	2.688392e-02	-0.417817	-3.111388e-03	0.005208	1.052007e-04	
448.988000	2.493113e+00	3.744875	1.432119e+03	8.407266	2.311939e-02	-0.342679	-2.552374e-03	0.004386	9.247276e-05	
449.452000	2.583722e+00	4.329701	1.421202e+03	9.770384	2.205542e-02	-0.394740	-2.553313e-03	0.005022	8.704342e-05	
449.917000	2.500786e+00	3.573641	1.417384e+03	10.194738	2.629037e-02	-0.407867	-2.819231e-03	0.005176	1.026047e-04	
450.381000	2.623213e+00	2.945330	1.407538e+03	11.286427	2.594690e-02	-0.448204	-3.131657e-03	0.005645	1.074517e-04	
450.845000	2.563011e+00	2.785264	1.430958e+03	8.539992	1.534261e-02	-0.347048	-2.287664e-03	0.004432	6.503541e-05	
451.310000	2.698949e+00	5.403187	1.410807e+03	10.991873	2.919705e-02	-0.442366	-3.059304e-03	0.005644	1.125511e-04	
451.774000	3.245229e+00	4.970664	1.375631e+03	15.379317	3.565293e-02	-0.617250	-3.644824e-03	0.007877	1.329048e-04	
452.239000	2.373631e+00	84.848285	1.378877e+03	14.977837	3.570760e-02	-0.599647	-3.653156e-03	0.007640	1.350104e-04	
452.703000	2.685157e+00	3.196359	1.382122e+03	14.576357	3.576227e-02	-0.582045	-3.661488e-03	0.007404	1.371159e-04	
453.168000	2.759209e+00	5.590295	1.393552e+03	13.081947	3.347782e-02	-0.524250	-3.379105e-03	0.006638	1.255044e-04	
453.632000	2.631176e+00	6.136078	1.406514e+03	11.310194	2.762092e-02	-0.445939	-3.020233e-03	0.005599	1.063766e-04	
454.097000	2.516757e+00	5.735021	1.434361e+03	8.189644	2.055023e-02	-0.333356	-2.307081e-03	0.004270	7.879334e-05	
454.562000	2.501037e+00	3.809895	1.419545e+03	9.902651	2.627691e-02	-0.397157	-2.781958e-03	0.005048	1.022947e-04	
455.026000	2.588247e+00	4.998104	1.427655e+03	8.782434	2.286354e-02	-0.347297	-2.601282e-03	0.004337	8.703853e-05	
455.491000	2.799833e+00	4.719451	1.411803e+03	10.841942	2.645099e-02	-0.435597	-2.881104e-03	0.005545	1.030332e-04	
455.956000	2.556147e+00	5.614893	1.410959e+03	10.916826	2.815858e-02	-0.437061	-2.970921e-03	0.005548	1.066467e-04	
456.421000	2.657799e+00	6.787848	1.415900e+03	10.313324	2.371303e-02	-0.413861	-2.830558e-03	0.005271	9.246272e-05	
456.886000	2.753242e+00	5.085049	1.372286e+03	15.660980	3.756249e-02	-0.623036	-3.876567e-03	0.007904	1.420480e-04	
457.350000	2.722271e+00	21.247421	1.405103e+03	11.746589	2.734667e-02	-0.473138	-3.055855e-03	0.006046	1.079865e-04	
457.815000	2.571314e+00	3.429208	1.415809e+03	10.234321	2.188668e-02	-0.408765	-2.749931e-03	0.005176	8.691886e-05	
458.280000	2.553808e+00	3.424831	1.415064e+03	10.400716	1.569948e-02	-0.419529	-2.755134e-03	0.005322	6.852535e-05	
458.745000	2.654005e+00	4.764175	1.397401e+03	12.605369	2.998493e-02	-0.502221	-3.168072e-03	0.006356	1.154132e-04	
459.210000	2.575311e+00	6.766891	1.404167e+03	11.860420	3.001957e-02	-0.477283	-3.099617e-03	0.006082	1.169414e-04	
459.675000	2.801246e+00	4.796814	1.414316e+03	10.408143	2.637278e-02	-0.412992	-2.943445e-03	0.005183	1.012238e-04	
460.140000	2.606109e+00	5.088885	1.411809e+03	10.739880	2.275192e-02	-0.427505	-2.762861e-03	0.005372	9.002624e-05	
460.605000	2.688064e+00	3.408900	1.407776e+03	11.207454	2.743626e-02	-0.444540	-3.091807e-03	0.005593	1.072264e-04	
461.070000	2.491298e+00	6.328778	1.413379e+03	10.602097	2.261535e-02	-0.424391	-2.557867e-03	0.005378	8.706191e-05	
461.536000	2.841845e+00	3.237718	1.407473e+03	11.247319	2.954520e-02	-0.444873	-3.124264e-03	0.005597	1.156512e-04	
462.001000	2.479722e+00	4.401734	1.429746e+03	8.565595	2.321700e-02	-0.343276	-2.517308e-03	0.004345	9.181602e-05	
462.466000	2.529497e+00	4.276716	1.417136e+03	10.344817	2.814320e-02	-0.419426	-2.963136e-03	0.005371	1.118818e-04	
462.931000	2.611786e+00	4.246805	1.405588e+03	11.708380	2.789317e-02	-0.470481	-3.143276e-03	0.005993	1.091776e-04	
463.397000	2.594629e+00	3.066483	1.417695e+03	10.047330	1.650619e-02	-0.402132	-2.670451e-03	0.005090	7.076703e-05	
463.862000	2.645593e+00	4.929807	1.413037e+03	10.677372	2.136634e-02	-0.428132	-3.160579e-03	0.005427	9.882084e-05	
464.327000	2.664693e+00	2.303409	1.405694e+03	11.640225	2.933803e-02	-0.464916	-3.215848e-03	0.005891	1.133501e-04	
464.793000	2.564968e+00	5.259098	1.413597e+03	10.636621	2.772863e-02	-0.429192	-3.006691e-03	0.005472	1.095540e-04	
465.258000	2.511459e+00	6.130025	1.400061e+03	12.433071	2.578474e-02	-0.501454	-2.950556e-03	0.006406	1.020460e-04	
465.724000	2.514929e+00	5.907637	1.427948e+03	8.860365	2.290426e-02	-0.355665	-2.502009e-03	0.004507	8.833554e-05	
466.189000	2.450528e+00	3.665154	1.435998e+03	7.913959	1.611820e-02	-0.321776	-2.373024e-03	0.004101	6.962471e-05	
466.655000	2.480910e+00	5.534667	1.419864e+03	9.969970	2.577142e-02	-0.399581	-2.896215e-03	0.005064	1.049960e-04	
467.120000	2.632274e+00	4.008606	1.409856e+03	11.059297	2.851495e-02	-0.443410	-3.021131e-03	0.005645	1.107208e-04	
467.586000	2.519201e+00	6.326257	1.401913e+03	12.014297	2.804689e-02	-0.481713	-3.234014e-03	0.006097	1.138500e-04	
468.051000	3.067484e+00	4.418302	1.393617e+03	12.931870	2.792872e-02	-0.514566	-3.079835e-03	0.006510	1.048172e-04	
468.517000	2.582849e+00	5.545960	1.430506e+03	8.660926	2.098212e-02	-0.350834	-2.439957e-03	0.004469	8.231205e-05	
468.983000	2.619901e+00	4.000669	1.411701e+03	10.905137	2.351191e-02	-0.439087	-2.905448e-03	0.005593	9.452215e-05	
469.448000	2.807427e+00	3.803860	1.427360e+03	9.037006	2.597775e-02	-0.369891	-2.688796e-03	0.004750	1.072121e-04	
469.914000	2.630961e+00	6.790218	1.404103e+03	11.782388	2.878219e-02	-0.473103	-3.058081e-03	0.006027	1.112277e-04	
470.380000	2.793555e+00	4.203347	1.400264e+03	12.143915	3.018498e-02	-0.483813	-3.151548e-03	0.006103	1.138231e-04	
470.846000	2.761725e+00	4.191202	1.400559e+03	12.203707	2.629579e-02	-0.486620	-3.042499e-03	0.006138	1.035062e-04	
471.312000	2.971353e+00	4.001933	1.393648e+03	12.942527	3.590519e-02	-0.514842	-3.629393e-03	0.006509	1.377884e-04	
471.778000	2.645591e+00	3.866138	1.391531e+03	13.239825	3.069267e-02	-0.527255	-3.215289e-03	0.006679	1.168355e-04	
472.243000	2.369055e+00	4.754592	1.423344e+03	9.530518	2.259461e-02	-0.386788	-2.453795e-03	0.004954	8.753835e-05	
472.709000	2.570886e+00	7.159361	1.429346e+03	8.643509	2.076393e-02	-0.346829	-2.546537e-03	0.004397	8.109202e-05	
473.175000	2.574004e+00	5.468244	1.417419e+03	10.279619	2.220809e-02	-0.413704	-2.795344e-03	0.005274	9.047963e-05	
473.641000	2.421786e+00	5.196519	1.428279e+03	8.812032	2.007850e-02	-0.354066	-2.500513e-03	0.004495	8.120949e-05	
474.107000	2.519180e+00	2.688534	1.386720e+03	13.907221	3.317800e-02	-0.554914	-3.393522e-03	0.007035	1.261122e-04	
474.574000	2.596029e+00	4.272279	1.397458e+03	12.531002	2.956953e-02	-0.500754	-3.078009e-03	0.006365	1.112462e-04	
475.040000	2.473489e+00	5.224435	1.434035e+03	8.265397	1.980862e-02	-0.334673	-2.185970e-03	0.004247	7.835634e-05	
475.506000	2.541648e+00	7.708910	1.424768e+03	9.320554	2.463431e-02	-0.376204	-2.701437e-03	0.004792	9.705234e-05	
475.972000	2.531317e+00	3.882825	1.426069e+03	9.153448	2.283693e-02	-0.369951	-2.587233e-03	0.004721	8.933354e-05	
476.438000	2.821308e+00	3.610934	1.412010e+03	10.720728	2.646373e-02	-0.428955	-2.995259e-03	0.005417	1.053066e-04	
476.905000	2.549268e+00	4.584389	1.416779e+03	10.275680	2.783596e-02	-0.413252	-2.931950e-03	0.005254	1.076262e-04	
477.371000	1.990321e+00	30.089338	1.416361e+03	10.165998	2.732501e-02	-0.405705	-2.888096e-03	0.005127	1.056167e-04	
477.837000	2.631644e+00	6.483750	1.415942e+03	10.056316	2.681406e-02	-0.398159	-2.844242e-03	0.005000	1.036073e-04	
478.303000	2.623605e+00	6.260582	1.423915e+03	9.138203	1.917747e-02	-0.364785	-2.521348e-03	0.004575	7.788575e-05	
478.770000	2.640715e+00	3.805305	1.405734e+03	11.614329	2.812991e-02	-0.465959	-3.207669e-03	0.005924	1.107599e-04	
479.236000	3.191186e+00	9.370672	1.371057e+03	15.690472	3.358029e-02	-0.621072	-3.490260e-03	0.007812	1.140455e-04	
479.703000	2.760095e+00	4.574324	1.413170e+03	10.506203	2.828787e-02	-0.417294	-3.018889e-03	0.005255	1.095254e-04	
480.169000	2.474517e+00	3.618682	1.412142e+03	10.687548	2.533978e-02	-0.425144	-2.838681e-03	0.005362	9.931889e-05	
480.636000	2.760525e+00	4.707471	1.405313e+03	11.724734	2.819157e-02	-0.470142	-3.062101e-03	0.005975	1.099267e-04	
481.102000	2.573775e+00	4.626378	1.425749e+03	9.111288	1.749614e-02	-0.368403	-2.459109e-03	0.004702	7.378701e-05	
481.569000	2.455213e+00	4.607691	1.425207e+03	9.505251	2.443376e-02	-0.385786	-2.748683e-03	0.004934	9.830213e-05	
482.036000	2.785305e+00	4.983221	1.406855e+03	11.414740	2.396546e-02	-0.458145	-2.715320e-03	0.005832	9.105236e-05	
482.502000	2.488739e+00	6.849710	1.414901e+03	10.481596	2.655915e-02	-0.423357	-2.896359e-03	0.005412	1.045593e-04	
482.969000	2.730699e+00	8.148946	1.438339e+03	7.537138	2.379086e-02	-0.305004	-2.626358e-03	0.003842	9.938835e-05	
483.436000	2.579154e+00	6.911126	1.400045e+03	12.458606	2.800398e-02	-0.499823	-3.142286e-03	0.006347	1.122696e-04	
483.902000	2.615506e+00	3.521381	1.409089e+03	11.214909	2.928977e-02	-0.451049	-3.139387e-03	0.005743	1.122918e-04	
484.369000	2.712051e+00	5.677839	1.409145e+03	11.075416	2.577440e-02	-0.447709	-2.831013e-03	0.005702	9.801691e-05	
484.836000	2.643397e+00	2.438391	1.395333e+03	12.786412	3.127247e-02	-0.508693	-3.270094e-03	0.006439	1.202328e-04	
485.303000	2.617655e+00	4.785755	1.413882e+03	10.520366	2.861522e-02	-0.420256	-3.097550e-03	0.005324	1.148773e-04	
485.770000	2.651789e+00	5.238431	1.404427e+03	11.831197	2.686333e-02	-0.479296	-2.941413e-03	0.006119	1.043100e-04	
486.237000	2.753868e+00	5.371506	1.411936e+03	10.888442	2.651934e-02	-0.439926	-2.859801e-03	0.005594	1.006363e-04	
486.704000	2.994295e+00	4.476861	1.402063e+03	11.947648	2.636051e-02	-0.475514	-2.759400e-03	0.006019	9.806323e-05	
487.171000	2.783564e+00	4.556212	1.388880e+03	13.510701	3.139683e-02	-0.535975	-3.339295e-03	0.006764	1.192763e-04	
487.638000	2.542304e+00	3.752530	1.416137e+03	10.296612	2.575721e-02	-0.411968	-2.846942e-03	0.005215	1.010705e-04	
488.105000	2.511163e+00	5.739763	1.402272e+03	11.947158	2.464164e-02	-0.476481	-3.190270e-03	0.006038	1.029173e-04	
488.572000	2.707315e+00	5.704610	1.410611e+03	10.963658	2.683498e-02	-0.441037	-2.802714e-03	0.005634	1.063462e-04	
489.039000	2.646339e+00	4.345141	1.416741e+03	10.254984	2.572962e-02	-0.412861	-2.886521e-03	0.005238	1.020366e-04	
489.506000	2.586421e+00	4.085033	1.421800e+03	9.642513	2.644426e-02	-0.389513	-2.811174e-03	0.004968	1.034263e-04	
489.973000	2.648074e+00	4.331253	1.411307e+03	11.062078	2.808194e-02	-0.446692	-2.959022e-03	0.005704	1.088517e-04	
490.440000	2.803907e+00	5.125228	1.393343e+03	13.102066	3.654255e-02	-0.522575	-3.712125e-03	0.006633	1.417152e-04	
490.908000	2.668998e+00	5.649372	1.417534e+03	10.120347	2.286288e-02	-0.405864	-2.885394e-03	0.005142	9.034220e-05	
491.375000	2.761994e+00	3.101820	1.385621e+03	14.061573	3.190453e-02	-0.563639	-3.482976e-03	0.007181	1.224980e-04	
491.842000	2.918497e+00	3.692028	1.402470e+03	12.054238	2.920131e-02	-0.483406	-3.219459e-03	0.006147	1.138877e-04	
492.310000	2.516424e+00	4.403844	1.430827e+03	8.515396	2.427273e-02	-0.341459	-2.635262e-03	0.004308	9.589091e-05	
492.777000	2.654596e+00	5.607495	1.399080e+03	12.366145	3.393088e-02	-0.490774	-3.439417e-03	0.006193	1.304992e-04	
493.244000	2.900873e+00	4.842578	1.405287e+03	11.866470	2.927546e-02	-0.482417	-3.090149e-03	0.006214	1.144053e-04	
493.712000	2.579608e+00	4.561300	1.414306e+03	10.627268	2.306022e-02	-0.427203	-2.855977e-03	0.005428	9.438842e-05	
494.179000	2.599206e+00	3.890859	1.421974e+03	9.589971	2.639342e-02	-0.385312	-2.824566e-03	0.004893	1.021578e-04	
494.647000	2.636430e+00	3.608948	1.415717e+03	10.343087	2.549665e-02	-0.414165	-2.768951e-03	0.005247	9.782745e-05	
495.114000	2.492298e+00	4.286717	1.408033e+03	11.308851	2.898445e-02	-0.453193	-3.043509e-03	0.005749	1.106129e-04	
495.582000	2.571930e+00	4.545109	1.405556e+03	11.406226	2.081574e-02	-0.450112	-2.741410e-03	0.005650	8.096295e-05	
496.050000	2.467527e+00	3.555764	1.412375e+03	10.740055	2.397485e-02	-0.430374	-2.678463e-03	0.005453	9.032339e-05	
496.517000	2.668122e+00	6.148298	1.419225e+03	10.090768	1.955729e-02	-0.411690	-2.580001e-03	0.005276	8.205941e-05	
496.985000	2.561987e+00	4.224170	1.418166e+03	10.061438	2.591902e-02	-0.402508	-2.978313e-03	0.005102	1.015127e-04	
497.453000	2.628231e+00	5.242881	1.411775e+03	10.750767	2.469402e-02	-0.427363	-2.925896e-03	0.005386	9.534214e-05	
497.920000	2.598083e+00	3.695082	1.394579e+03	12.867679	2.812568e-02	-0.512019	-3.223039e-03	0.006481	1.060624e-04	
498.388000	2.673607e+00	3.759127	1.405873e+03	11.730955	3.020246e-02	-0.472275	-3.203954e-03	0.006026	1.200158e-04	
498.856000	2.565627e+00	9.825402	1.440779e+03	7.448871	1.666590e-02	-0.304175	-2.355237e-03	0.003894	6.870359e-05	
499.324000	2.690339e+00	5.553807	1.415688e+03	10.292038	2.679877e-02	-0.412315	-2.879428e-03	0.005218	1.021322e-04	
499.792000	2.505363e+00	5.477384	1.409746e+03	11.040770	2.731782e-02	-0.440446	-2.989982e-03	0.005583	1.056640e-04	
500.260000	2.627622e+00	4.009100	1.402637e+03	11.944156	2.660144e-02	-0.478166	-2.806312e-03	0.006084	1.012909e-04	
500.728000	2.662837e+00	6.723558	1.403528e+03	11.884193	2.954531e-02	-0.474083	-3.155513e-03	0.005998	1.136457e-04	
501.196000	2.515007e+00	4.639334	1.427636e+03	8.862360	1.152880e-02	-0.355381	-2.438831e-03	0.004504	5.470082e-05	
501.664000	2.663599e+00	4.494975	1.417751e+03	10.015527	2.132332e-02	-0.397029	-2.861611e-03	0.004986	8.394613e-05	
502.132000	2.763679e+00	3.769364	1.407253e+03	11.284803	2.325771e-02	-0.450519	-2.644763e-03	0.005713	8.501608e-05	
502.600000	2.585685e+00	4.608090	1.400430e+03	12.249471	2.656778e-02	-0.490909	-2.984133e-03	0.006251	1.032839e-04	
503.068000	3.209944e+00	6.259508	1.351895e+03	17.913335	3.248005e-02	-0.703906	-3.532428e-03	0.008846	1.042768e-04	
503.536000	2.525889e+00	6.091081	1.411466e+03	10.920413	2.764566e-02	-0.440851	-2.995656e-03	0.005597	1.099937e-04	
504.004000	2.828728e+00	5.733830	1.400181e+03	12.295915	2.830443e-02	-0.494985	-3.165508e-03	0.006289	1.093728e-04	
504.472000	2.576464e+00	5.419806	1.418175e+03	10.066729	2.257897e-02	-0.403239	-2.720137e-03	0.005117	9.109857e-05	
504.941000	2.748898e+00	5.683320	1.404763e+03	11.849288	2.995886e-02	-0.481515	-3.252571e-03	0.006153	1.201363e-04	
505.409000	2.718091e+00	3.268972	1.420535e+03	9.688444	2.429492e-02	-0.387846	-2.857707e-03	0.004922	9.452132e-05	
505.877000	2.577387e+00	3.174119	1.408988e+03	11.121119	2.813151e-02	-0.445290	-3.079652e-03	0.005659	1.092725e-04	
506.346000	2.597194e+00	6.147998	1.416927e+03	10.164148	2.620995e-02	-0.405964	-2.932784e-03	0.005126	1.005637e-04	
506.814000	2.845476e+00	6.527124	1.407822e+03	11.300568	2.515554e-02	-0.449681	-2.949759e-03	0.005680	1.034899e-04	
507.282000	2.601776e+00	3.503334	1.418955e+03	9.981489	2.272875e-02	-0.401063	-2.742870e-03	0.005094	9.331202e-05	
507.751000	2.489594e+00	3.719708	1.417779e+03	10.161017	1.853300e-02	-0.410153	-2.494074e-03	0.005234	7.212467e-05	
508.219000	2.628153e+00	4.223251	1.418919e+03	10.078974	2.595781e-02	-0.405938	-2.874230e-03	0.005159	1.000951e-04	
508.688000	2.702348e+00	4.449706	1.412493e+03	10.632453	2.436551e-02	-0.419322	-2.621815e-03	0.005252	9.145536e-05	
509.156000	2.709271e+00	6.719849	1.407237e+03	11.453959	1.848031e-02	-0.463514	-2.762594e-03	0.005894	7.470079e-05	
509.625000	2.540467e+00	4.739809	1.440321e+03	7.461197	1.096645e-02	-0.306564	-1.988661e-03	0.003948	4.819022e-05	
510.094000	2.541271e+00	3.622866	1.416698e+03	10.181949	2.461256e-02	-0.408522	-2.791670e-03	0.005185	9.096615e-05	
510.562000	2.751343e+00	4.815557	1.403685e+03	11.933119	2.455905e-02	-0.481991	-3.298882e-03	0.006160	1.072348e-04	
511.031000	2.893341e+00	3.576213	1.385262e+03	13.959832	3.267866e-02	-0.553364	-3.367934e-03	0.006988	1.228423e-04	
511.500000	2.761812e+00	6.136462	1.397535e+03	12.399695	2.896098e-02	-0.492982	-3.106811e-03	0.006228	1.096738e-04	
511.968000	2.595622e+00	5.954074	1.408551e+03	11.165850	2.707117e-02	-0.444840	-3.070974e-03	0.005578	1.052617e-04	
512.437000	2.629956e+00	4.194149	1.408900e+03	11.145839	2.866868e-02	-0.444454	-2.991683e-03	0.005630	1.094452e-04	
512.906000	2.653303e+00	8.062778	1.409128e+03	11.057626	2.986398e-02	-0.444655	-3.119785e-03	0.005643	1.133030e-04	
513.375000	2.536846e+00	4.983426	1.412155e+03	10.698977	2.123749e-02	-0.425627	-2.795893e-03	0.005364	8.843660e-05	
513.844000	2.607394e+00	5.107903	1.436990e+03	7.786034	2.013451e-02	-0.315737	-2.440072e-03	0.004019	8.115693e-05	
514.313000	2.712406e+00	4.302848	1.409291e+03	11.209217	2.969812e-02	-0.449415	-3.094428e-03	0.005708	1.155657e-04	
514.782000	2.722198e+00	4.555812	1.410764e+03	11.078648	2.931682e-02	-0.446316	-3.170581e-03	0.005681	1.163320e-04	
515.251000	2.803478e+00	4.710788	1.421927e+03	9.557088	1.805939e-02	-0.384501	-2.503474e-03	0.004885	7.742900e-05	
515.720000	2.537704e+00	4.925760	1.423400e+03	9.451774	2.052404e-02	-0.380692	-2.563399e-03	0.004834	8.279597e-05	
516.189000	2.612409e+00	7.657504	1.396253e+03	12.715103	3.101168e-02	-0.509974	-3.232264e-03	0.006476	1.211482e-04	
516.658000	2.582995e+00	3.956709	1.427923e+03	9.016996	1.912715e-02	-0.364776	-2.495783e-03	0.004659	7.765756e-05	
517.127000	2.422337e+00	4.552609	1.426197e+03	8.957840	2.373574e-02	-0.356981	-2.532312e-03	0.004502	9.159839e-05	
517.596000	2.709787e+00	3.900929	1.416810e+03	10.196811	2.277140e-02	-0.407410	-2.692598e-03	0.005159	9.056592e-05	
518.065000	2.700597e+00	6.231024	1.399132e+03	12.387617	2.739736e-02	-0.499990	-3.040274e-03	0.006380	1.051650e-04	
518.534000	2.785815e+00	4.010397	1.412117e+03	10.589883	2.703012e-02	-0.419286	-3.037861e-03	0.005263	1.049973e-04	
519.004000	2.677688e+00	3.917120	1.418133e+03	10.080953	1.713460e-02	-0.404177	-3.048378e-03	0.005112	8.696142e-05	
519.473000	2.578600e+00	4.018269	1.411916e+03	10.710310	2.509490e-02	-0.424687	-3.259967e-03	0.005327	1.089817e-04	
519.942000	2.693102e+00	2.947366	1.417449e+03	10.216158	2.874230e-02	-0.409438	-3.034384e-03	0.005186	1.096863e-04	
520.412000	2.546702e+00	4.291715	1.412082e+03	10.817617	2.641316e-02	-0.432631	-2.831463e-03	0.005484	1.008598e-04	
520.881000	2.417545e+00	3.838990	1.425668e+03	8.934459	2.342570e-02	-0.354379	-2.533516e-03	0.004442	8.858803e-05	
521.350000	3.923509e+00	7.578363	1.415099e+03	10.271303	2.106537e-02	-0.410656	-2.795468e-03	0.005167	8.242718e-05	
521.820000	2.609179e+00	4.259056	1.413712e+03	10.575373	2.388611e-02	-0.423287	-2.738744e-03	0.005375	9.273643e-05	
522.289000	2.589227e+00	3.910023	1.417089e+03	10.079162	2.195536e-02	-0.402334	-2.666808e-03	0.005087	8.370139e-05	
522.759000	2.689777e+00	5.736539	1.419172e+03	9.679541	2.674556e-02	-0.382016	-2.813427e-03	0.004776	1.028500e-04	
523.228000	2.480920e+00	4.306618	1.440443e+03	7.263684	1.829677e-02	-0.292765	-2.355824e-03	0.003709	7.288707e-05	
523.698000	2.819670e+00	3.429197	1.407071e+03	11.329576	2.493799e-02	-0.453345	-2.745263e-03	0.005755	9.586927e-05	
524.168000	2.632363e+00	3.432680	1.427577e+03	8.858312	1.196614e-02	-0.355506	-2.624017e-03	0.004494	6.364175e-05	
524.637000	2.599377e+00	3.007535	1.398652e+03	12.341630	2.679677e-02	-0.490952	-3.000814e-03	0.006215	1.023181e-04	
525.107000	2.691095e+00	4.232830	1.397482e+03	12.745841	3.185943e-02	-0.512563	-3.352604e-03	0.006545	1.240383e-04	
525.577000	2.664212e+00	4.444740	1.407308e+03	11.257283	3.100558e-02	-0.446008	-3.245268e-03	0.005606	1.176247e-04	
526.046000	2.449293e+00	4.171060	1.418048e+03	10.066363	2.492458e-02	-0.403645	-2.664435e-03	0.005115	9.607834e-05	
526.516000	2.611242e+00	4.510383	1.408387e+03	11.259691	2.666332e-02	-0.452901	-2.821744e-03	0.005770	9.950278e-05	
526.986000	2.521366e+00	5.979066	1.407158e+03	11.455488	2.860390e-02	-0.460758	-3.031128e-03	0.005874	1.102127e-04	
527.456000	2.739109e+00	7.006902	1.402744e+03	11.723266	2.679452e-02	-0.463436	-2.964878e-03	0.005828	1.003942e-04	
527.926000	2.618535e+00	3.733329	1.403300e+03	11.690248	2.794498e-02	-0.460047	-3.288268e-03	0.005760	1.138002e-04	
528.396000	2.583725e+00	4.982628	1.403875e+03	11.691939	3.149113e-02	-0.467054	-3.367995e-03	0.005919	1.220710e-04	
528.866000	2.754352e+00	4.874749	1.413039e+03	10.699315	2.784678e-02	-0.430660	-2.966300e-03	0.005494	1.074610e-04	
529.336000	2.767842e+00	6.202604	1.429589e+03	8.621538	1.459760e-02	-0.346543	-2.254996e-03	0.004413	5.769244e-05	
529.806000	2.621808e+00	7.247953	1.406465e+03	11.533242	2.878606e-02	-0.465475	-3.024368e-03	0.005940	1.149212e-04	
530.276000	2.483257e+00	4.183615	1.408701e+03	11.061486	2.576185e-02	-0.437603	-2.878464e-03	0.005499	9.961366e-05	
530.746000	2.640538e+00	3.244546	1.406276e+03	11.415581	2.915896e-02	-0.453678	-3.132758e-03	0.005725	1.120467e-04	
531.216000	2.622025e+00	5.877176	1.407789e+03	11.281168	2.763246e-02	-0.451057	-3.172772e-03	0.005700	1.069054e-04	
531.686000	2.605713e+00	4.372568	1.408579e+03	11.054502	2.721516e-02	-0.436157	-3.004739e-03	0.005469	1.042073e-04	
532.156000	2.719831e+00	3.402920	1.404267e+03	11.615651	2.372055e-02	-0.462253	-2.822948e-03	0.005849	9.416685e-05	
532.626000	2.655158e+00	3.513601	1.419378e+03	9.777237	2.713435e-02	-0.387909	-2.906159e-03	0.004874	1.049132e-04	
533.097000	2.531878e+00	4.539165	1.404754e+03	11.654773	2.911546e-02	-0.464207	-3.181559e-03	0.005875	1.130961e-04	
533.567000	2.674432e+00	5.011469	1.428601e+03	8.834257	2.389878e-02	-0.356000	-2.554335e-03	0.004526	9.198083e-05	
534.037000	2.574530e+00	5.218771	1.424924e+03	9.138232	2.694294e-02	-0.365740	-2.850919e-03	0.004614	1.057724e-04	
534.508000	2.559045e+00	3.545904	1.415807e+03	10.443354	2.406421e-02	-0.421879	-2.787635e-03	0.005388	9.562720e-05	
534.978000	2.519927e+00	7.282219	1.412020e+03	10.627967	2.509101e-02	-0.425654	-2.768921e-03	0.005318	1.053153e-04	
535.448000	2.499897e+00	5.061565	1.412244e+03	10.672847	2.579768e-02	-0.423567	-2.791468e-03	0.005333	9.933882e-05	
535.919000	2.499327e+00	5.032411	1.407851e+03	11.327039	2.740251e-02	-0.453697	-2.905054e-03	0.005756	1.048170e-04	
536.389000	2.478234e+00	6.222545	1.444539e+03	6.755237	1.673011e-02	-0.270579	-2.406055e-03	0.003388	6.825261e-05	
536.860000	2.738637e+00	6.769687	1.400858e+03	12.210197	3.042629e-02	-0.488655	-3.187998e-03	0.006204	1.194227e-04	
537.330000	2.755563e+00	5.056264	1.416025e+03	10.524307	2.307224e-02	-0.428534	-2.688672e-03	0.005524	9.003660e-05	
537.801000	2.498354e+00	4.105358	1.409002e+03	11.292750	2.711028e-02	-0.454391	-2.866491e-03	0.005796	1.073938e-04	
538.272000	2.694538e+00	4.797129	1.412454e+03	10.687884	2.614594e-02	-0.426390	-2.856807e-03	0.005388	1.024592e-04	
538.742000	2.886302e+00	3.028915	1.389146e+03	13.528657	3.378759e-02	-0.537085	-3.411249e-03	0.006789	1.265064e-04	
539.213000	2.712657e+00	4.710506	1.394589e+03	12.865098	3.097966e-02	-0.513903	-3.132383e-03	0.006519	1.155866e-04	
539.684000	2.564711e+00	6.175415	1.419102e+03	9.960668	2.708561e-02	-0.396408	-2.958630e-03	0.004987	1.060088e-04	
540.154000	2.560144e+00	4.447684	1.414742e+03	10.349921	2.238623e-02	-0.410145	-3.014531e-03	0.005156	9.586111e-05	
540.625000	2.610345e+00	4.458616	1.416072e+03	10.320037	2.598760e-02	-0.417727	-2.830341e-03	0.005341	1.021652e-04	
541.096000	2.675067e+00	5.275642	1.420680e+03	9.537416	2.564051e-02	-0.378388	-2.768520e-03	0.004746	9.758740e-05	
541.567000	2.621241e+00	4.734910	1.423239e+03	9.486626	2.576078e-02	-0.384740	-2.813791e-03	0.004917	1.006165e-04	
542.038000	2.723749e+00	6.668056	1.386501e+03	13.959956	3.193716e-02	-0.555784	-3.379429e-03	0.007042	1.228744e-04	
542.509000	2.633391e+00	3.138792	1.418484e+03	10.038361	2.481962e-02	-0.403787	-2.689807e-03	0.005153	9.704218e-05	
542.979000	2.537938e+00	4.658225	1.408278e+03	11.245752	2.740216e-02	-0.449005	-2.879430e-03	0.005677	1.035629e-04	
543.450000	2.776629e+00	4.577210	1.411810e+03	10.948512	2.576698e-02	-0.441551	-2.847851e-03	0.005633	9.975163e-05	
543.921000	2.670410e+00	4.090690	1.398582e+03	12.455891	2.895415e-02	-0.499576	-3.093846e-03	0.006355	1.098161e-04	
544.393000	2.766071e+00	4.959313	1.396195e+03	12.612888	2.808193e-02	-0.498321	-3.370787e-03	0.006273	1.122088e-04	
544.864000	2.470045e+00	5.076662	1.422457e+03	9.525435	2.115823e-02	-0.379639	-2.892025e-03	0.004772	9.247153e-05	
545.335000	2.688517e+00	4.011583	1.417339e+03	10.209976	2.513309e-02	-0.409735	-2.754429e-03	0.005199	9.841886e-05	
545.806000	2.675484e+00	3.201976	1.404654e+03	11.810362	2.892782e-02	-0.475556	-3.074434e-03	0.006071	1.121713e-04	
546.277000	2.643932e+00	6.419385	1.411313e+03	10.876656	2.486084e-02	-0.434339	-2.690016e-03	0.005509	9.428813e-05	
546.748000	2.493146e+00	4.050530	1.417184e+03	10.202585	2.294604e-02	-0.408867	-2.748818e-03	0.005193	9.441658e-05	
547.219000	8.684753e+00	17.349956	1.592275e+03	-11.145609	9.655144e-03	0.426590	-1.766294e-03	-0.005336	8.158805e-05	
547.691000	2.506758e+00	5.692741	1.419579e+03	9.930696	2.637464e-02	-0.399744	-2.860322e-03	0.005079	1.019481e-04	
548.162000	2.556969e+00	6.242860	1.408315e+03	11.290567	2.948494e-02	-0.453467	-3.115641e-03	0.005753	1.140050e-04	
548.633000	2.513340e+00	3.949848	1.403481e+03	11.858985	2.848775e-02	-0.475008	-3.083390e-03	0.006050	1.106197e-04	
549.105000	2.509503e+00	5.698959	1.418434e+03	10.025364	2.003519e-02	-0.403701	-2.461502e-03	0.005131	7.787036e-05	
549.576000	2.927747e+00	3.746830	1.390754e+03	13.573921	3.185234e-02	-0.546471	-3.303016e-03	0.006962	1.209297e-04	
550.048000	2.586692e+00	3.766879	1.414632e+03	10.602685	2.425788e-02	-0.427706	-2.715117e-03	0.005461	9.540019e-05	
550.519000	2.505937e+00	3.044382	1.422901e+03	9.380891	2.313751e-02	-0.370769	-2.584355e-03	0.004633	8.697054e-05	
550.991000	2.456420e+00	5.316941	1.413649e+03	10.655636	2.574028e-02	-0.428024	-2.893266e-03	0.005433	1.037512e-04	
551.462000	2.587276e+00	4.579856	1.409702e+03	11.214968	2.925782e-02	-0.452664	-3.037947e-03	0.005790	1.143381e-04	
551.934000	2.483088e+00	2.864736	1.416644e+03	10.280236	2.769721e-02	-0.413649	-3.030275e-03	0.005274	1.079215e-04	
552.405000	2.430591e+00	3.798589	1.413257e+03	10.724369	2.385105e-02	-0.431790	-2.697341e-03	0.005487	9.075943e-05	
552.877000	2.491406e+00	3.734435	1.401816e+03	11.969224	2.816601e-02	-0.476778	-3.119089e-03	0.006014	1.106897e-04	
553.349000	2.609312e+00	4.574173	1.402924e+03	11.886914	2.820671e-02	-0.473811	-3.040810e-03	0.005999	1.111810e-04	
553.820000	2.592004e+00	5.470697	1.418289e+03	10.005009	2.063209e-02	-0.403162	-2.697860e-03	0.005085	8.378559e-05	
554.292000	2.689479e+00	4.626966	1.410101e+03	11.088541	2.669998e-02	-0.446619	-3.030192e-03	0.005662	1.039575e-04	
554.764000	2.679335e+00	3.415525	1.399004e+03	12.299966	2.931704e-02	-0.489527	-3.077926e-03	0.006196	1.109238e-04	
555.236000	2.748885e+00	5.790771	1.430303e+03	8.494205	1.012956e-02	-0.342399	-2.655400e-03	0.004332	6.346103e-05	
555.708000	2.851692e+00	5.371301	1.395507e+03	12.804919	3.158959e-02	-0.509707	-3.307624e-03	0.006448	1.220107e-04	
556.179000	2.541099e+00	7.496359	1.414940e+03	10.557775	2.565665e-02	-0.425993	-2.760888e-03	0.005424	1.027805e-04	
556.651000	2.545705e+00	4.309900	1.409804e+03	10.949036	2.968939e-02	-0.437822	-3.021844e-03	0.005547	1.151464e-04	
557.123000	2.865591e+00	4.640720	1.421144e+03	9.660291	2.549428e-02	-0.388782	-2.712596e-03	0.004945	9.971108e-05	
557.595000	2.581346e+00	4.012546	1.415525e+03	10.388747	2.779820e-02	-0.415420	-2.968695e-03	0.005249	1.090955e-04	
558.067000	2.585132e+00	4.496499	1.410243e+03	11.010633	2.453114e-02	-0.443200	-2.842540e-03	0.005657	9.899517e-05	
558.539000	2.761189e+00	5.287797	1.420401e+03	9.754162	1.942289e-02	-0.394718	-2.331704e-03	0.005042	7.564000e-05	
559.011000	2.502580e+00	4.988457	1.426262e+03	8.993014	2.229327e-02	-0.358640	-2.574351e-03	0.004522	8.675222e-05	
559.483000	2.634049e+00	15.171854	1.414210e+03	10.460333	3.134741e-02	-0.416129	-3.200894e-03	0.005233	1.225227e-04	
559.956000	2.737883e+00	3.754073	1.420273e+03	9.641296	2.563921e-02	-0.385365	-2.736566e-03	0.004873	9.892051e-05	
560.428000	2.705263e+00	4.018424	1.399336e+03	12.202361	2.690851e-02	-0.483514	-2.885258e-03	0.006094	1.020068e-04	
560.900000	2.717939e+00	3.459733	1.416540e+03	10.372267	2.439559e-02	-0.418649	-2.689826e-03	0.005344	9.415776e-05	
561.372000	2.575076e+00	7.145055	1.415378e+03	10.322919	2.817563e-02	-0.413051	-3.058696e-03	0.005214	1.092511e-04	
561.845000	2.604003e+00	7.907562	1.415004e+03	10.413382	2.010340e-02	-0.418370	-2.602261e-03	0.005327	8.660421e-05	
562.317000	2.629878e+00	4.010088	1.417368e+03	10.081370	2.813779e-02	-0.402129	-2.904478e-03	0.005092	1.072837e-04	
562.789000	2.757946e+00	5.903673	1.404602e+03	11.663348	2.560907e-02	-0.465122	-2.825054e-03	0.005891	9.711623e-05	
563.262000	2.693772e+00	4.457634	1.408981e+03	11.184800	2.771597e-02	-0.448104	-3.070015e-03	0.005681	1.061682e-04	
563.734000	2.544426e+00	5.074093	1.418664e+03	10.105477	2.634444e-02	-0.404703	-2.836375e-03	0.005121	1.032621e-04	
564.206000	2.451532e+00	3.736707	1.438104e+03	7.692476	9.040201e-03	-0.314228	-1.693826e-03	0.004028	3.400454e-05	
564.679000	2.565158e+00	5.245243	1.417295e+03	10.163366	2.075284e-02	-0.407993	-2.934153e-03	0.005173	9.272662e-05	
565.151000	2.674395e+00	6.646672	1.430129e+03	8.513804	1.514450e-02	-0.345955	-2.408265e-03	0.004421	6.666990e-05	
565.624000	2.767062e+00	5.877630	1.407685e+03	11.248841	2.453232e-02	-0.449442	-3.033808e-03	0.005684	1.020569e-04	
566.096000	2.770352e+00	7.175532	1.401469e+03	11.865443	3.158601e-02	-0.469232	-3.226492e-03	0.005910	1.196753e-04	
566.569000	2.589377e+00	4.769419	1.405634e+03	11.676777	3.004216e-02	-0.468886	-3.177019e-03	0.005971	1.186680e-04	
567.042000	2.727558e+00	3.775465	1.408603e+03	11.347430	2.783414e-02	-0.458744	-3.011733e-03	0.005868	1.085144e-04	
567.514000	2.733993e+00	5.151948	1.413745e+03	10.551684	2.696057e-02	-0.424247	-2.927032e-03	0.005406	1.053110e-04	
567.987000	2.749580e+00	6.683322	1.403774e+03	11.786614	2.693755e-02	-0.472274	-2.933267e-03	0.005993	1.030936e-04	
568.460000	2.455351e+00	3.473718	1.415507e+03	10.294554	2.431619e-02	-0.411592	-2.870977e-03	0.005201	9.531971e-05	
568.933000	2.874537e+00	5.729770	1.412366e+03	10.749719	2.241548e-02	-0.427793	-2.703936e-03	0.005396	8.877388e-05	
569.405000	2.705614e+00	5.954124	1.402732e+03	11.944426	2.586727e-02	-0.480624	-2.988424e-03	0.006113	1.015253e-04	
569.878000	2.473630e+00	4.866467	1.428284e+03	8.866724	1.932804e-02	-0.358683	-2.403354e-03	0.004560	7.727771e-05	
570.351000	2.634185e+00	2.489557	1.423382e+03	9.407562	2.087342e-02	-0.376672	-2.734832e-03	0.004767	9.011506e-05	
570.824000	2.655749e+00	4.350223	1.423109e+03	9.425325	2.582823e-02	-0.375897	-2.789542e-03	0.004733	1.023841e-04	
571.297000	3.042108e+00	4.672890	1.408407e+03	11.137624	2.796865e-02	-0.444987	-2.945778e-03	0.005654	1.057626e-04	
571.770000	2.527898e+00	4.180331	1.430258e+03	8.716868	2.430365e-02	-0.356551	-2.649903e-03	0.004588	9.961989e-05	
572.243000	2.559400e+00	3.355316	1.417726e+03	10.021187	2.456742e-02	-0.400284	-2.873740e-03	0.005059	9.715907e-05	
572.716000	2.760493e+00	4.474341	1.396096e+03	12.631557	3.004679e-02	-0.501089	-3.182571e-03	0.006324	1.129867e-04	
573.189000	2.748516e+00	5.046542	1.406999e+03	11.527976	2.480778e-02	-0.466870	-2.879245e-03	0.005993	9.968472e-05	
573.662000	2.665961e+00	4.741769	1.388522e+03	13.577314	3.076313e-02	-0.538583	-3.237044e-03	0.006790	1.149870e-04	
574.135000	2.508020e+00	5.065234	1.415987e+03	10.410181	2.654091e-02	-0.421283	-2.883994e-03	0.005386	1.035741e-04	
574.608000	2.674798e+00	5.578939	1.402778e+03	11.899329	2.981676e-02	-0.475459	-3.130582e-03	0.006023	1.142236e-04	
575.082000	2.731200e+00	8.967680	1.407281e+03	11.171689	2.943537e-02	-0.440196	-3.091118e-03	0.005530	1.171978e-04	
575.555000	2.514567e+00	4.298109	1.405951e+03	11.553386	2.768362e-02	-0.464039	-3.013227e-03	0.005910	1.098922e-04	
576.028000	4.394903e+00	27.759880	1.518134e+03	-1.633472	2.145019e-02	0.041404	-3.357765e-03	-0.000396	1.160481e-04	
576.501000	2.646673e+00	4.783030	1.405676e+03	11.536617	2.405532e-02	-0.458605	-2.859348e-03	0.005784	9.568853e-05	
576.975000	2.630467e+00	3.986410	1.404309e+03	11.715444	3.049472e-02	-0.463339	-3.115253e-03	0.005816	1.155599e-04	
577.448000	2.637401e+00	3.540743	1.420879e+03	9.433740	2.116259e-02	-0.370208	-2.774713e-03	0.004612	8.378725e-05	
577.922000	5.126895e+00	3.359809	1.405991e+03	11.616238	2.773094e-02	-0.467805	-3.267996e-03	0.005966	1.091178e-04	
578.395000	2.549437e+00	4.539143	1.423413e+03	9.291467	1.951413e-02	-0.368428	-2.319700e-03	0.004615	7.096124e-05	
578.869000	2.539919e+00	3.487569	1.399646e+03	12.285550	2.664084e-02	-0.488874	-2.878601e-03	0.006172	1.016768e-04	
579.342000	2.714370e+00	5.433276	1.413213e+03	10.433364	2.322526e-02	-0.413638	-2.738951e-03	0.005196	8.597961e-05	
579.816000	2.541061e+00	6.798772	1.422740e+03	9.524837	2.373279e-02	-0.381718	-2.704846e-03	0.004838	9.302104e-05	
580.289000	2.920751e+00	6.693363	1.386444e+03	13.720052	2.998689e-02	-0.542191	-3.427852e-03	0.006819	1.178348e-04	
580.763000	2.519850e+00	4.427359	1.416704e+03	10.268862	2.545423e-02	-0.413847	-2.736406e-03	0.005279	9.782614e-05	
581.236000	2.782345e+00	6.246814	1.411751e+03	10.790644	2.514478e-02	-0.431569	-2.867356e-03	0.005449	9.879685e-05	
581.710000	2.673672e+00	4.384873	1.408217e+03	11.267486	2.951833e-02	-0.454977	-3.184031e-03	0.005810	1.138903e-04	
582.184000	2.864608e+00	6.129484	1.414515e+03	10.581388	2.882608e-02	-0.426864	-3.075852e-03	0.005449	1.118646e-04	
582.657000	3.005234e+00	5.251692	1.366350e+03	16.163383	2.382686e-02	-0.635511	-3.301075e-03	0.007962	7.748299e-05	
583.131000	2.734469e+00	5.650839	1.417512e+03	10.149700	2.035200e-02	-0.407870	-2.698057e-03	0.005181	8.339933e-05	
583.605000	2.658688e+00	4.293855	1.413756e+03	10.556809	2.019768e-02	-0.422852	-2.624329e-03	0.005365	8.216876e-05	
584.079000	2.724369e+00	3.973988	1.409844e+03	11.060145	2.134588e-02	-0.443319	-2.748059e-03	0.005629	8.492305e-05	
584.553000	2.788140e+00	4.731277	1.400961e+03	12.103083	3.107374e-02	-0.480429	-3.273059e-03	0.006060	1.185251e-04	
585.027000	2.555501e+00	3.897335	1.404123e+03	11.647926	2.922138e-02	-0.461855	-3.143365e-03	0.005808	1.148410e-04	
585.501000	2.731444e+00	4.408450	1.414068e+03	10.432143	2.554819e-02	-0.413663	-2.861005e-03	0.005207	1.008848e-04	
585.975000	2.845801e+00	4.618689	1.404336e+03	11.693622	2.519535e-02	-0.467702	-2.716763e-03	0.005926	9.653875e-05	
586.449000	2.775184e+00	5.372130	1.404386e+03	11.622595	2.932297e-02	-0.461022	-3.111051e-03	0.005812	1.139644e-04	
586.923000	2.654007e+00	2.452260	1.406522e+03	11.401886	2.911459e-02	-0.453969	-3.109613e-03	0.005735	1.135434e-04	
587.397000	2.877320e+00	6.029297	1.405343e+03	11.518807	3.149999e-02	-0.456678	-3.327584e-03	0.005743	1.196317e-04	
587.871000	2.078487e+00	734.291683	1.410531e+03	10.997831	2.796377e-02	-0.440158	-2.983619e-03	0.005578	1.055554e-04	
588.345000	2.471018e+00	3.859920	1.415720e+03	10.476855	2.442755e-02	-0.423637	-2.639653e-03	0.005414	9.147898e-05	
588.819000	2.717878e+00	3.515391	1.426465e+03	9.022231	2.025955e-02	-0.362869	-2.756998e-03	0.004605	8.450534e-05	
589.293000	2.701993e+00	4.293941	1.417792e+03	10.010769	2.367013e-02	-0.400182	-2.735290e-03	0.005062	8.940727e-05	
589.768000	2.610052e+00	3.777918	1.420669e+03	9.608330	2.596780e-02	-0.381827	-2.820887e-03	0.004802	1.020164e-04	
590.242000	2.578145e+00	4.015022	1.410178e+03	11.066904	2.523230e-02	-0.445156	-2.773784e-03	0.005671	9.599694e-05	
590.716000	2.652218e+00	2.712850	1.403430e+03	11.878264	3.035781e-02	-0.476601	-3.161336e-03	0.006072	1.162306e-04	
591.190000	2.640516e+00	3.500131	1.401525e+03	11.996784	3.002499e-02	-0.478950	-3.291512e-03	0.006073	1.156425e-04	
591.665000	2.524166e+00	6.675065	1.429214e+03	8.755805	2.053676e-02	-0.352215	-2.788858e-03	0.004415	8.722993e-05	
592.139000	2.556737e+00	4.939592	1.410430e+03	11.031872	2.726863e-02	-0.442420	-3.025673e-03	0.005617	1.071691e-04	
592.614000	2.488834e+00	5.450373	1.409523e+03	11.137893	2.136410e-02	-0.444577	-2.760217e-03	0.005621	8.636431e-05	
593.088000	2.547381e+00	5.188694	1.409302e+03	11.151881	3.050432e-02	-0.447321	-3.080463e-03	0.005660	1.163873e-04	
593.563000	2.655726e+00	4.768562	1.404982e+03	11.658367	2.880222e-02	-0.465010	-3.008402e-03	0.005887	1.086852e-04	
594.037000	2.414569e+00	4.721504	1.425944e+03	9.097423	2.059422e-02	-0.366596	-2.372679e-03	0.004659	8.103823e-05	
594.512000	2.412773e+00	4.330186	1.421174e+03	9.731267	1.978251e-02	-0.392744	-2.449485e-03	0.005006	7.389534e-05	
594.986000	2.579311e+00	3.890415	1.445974e+03	6.611365	1.497113e-02	-0.264218	-2.159824e-03	0.003307	6.422471e-05	
595.461000	2.647710e+00	3.143025	1.455144e+03	5.635653	1.388087e-02	-0.232163	-1.969891e-03	0.002990	6.488777e-05	
595.936000	2.542759e+00	3.347108	1.409108e+03	11.017199	2.628621e-02	-0.434336	-2.998703e-03	0.005434	1.032455e-04	
596.410000	2.458314e+00	4.168444	1.418242e+03	9.930454	2.195919e-02	-0.396617	-2.743229e-03	0.004988	8.363118e-05	
596.885000	2.451806e+00	3.910373	1.419872e+03	9.714650	2.383248e-02	-0.388908	-2.961012e-03	0.004933	9.533191e-05	
597.360000	2.891451e+00	4.550652	1.400847e+03	12.091691	2.815413e-02	-0.481781	-2.906080e-03	0.006105	1.068533e-04	
597.835000	2.887869e+00	3.346557	1.392549e+03	12.966930	3.461103e-02	-0.512801	-3.630226e-03	0.006441	1.334421e-04	
598.309000	2.593356e+00	3.055283	1.399685e+03	12.464836	2.959223e-02	-0.497524	-3.109910e-03	0.006307	1.146470e-04	
598.784000	2.656149e+00	4.312113	1.407441e+03	11.392133	2.491499e-02	-0.457127	-2.786439e-03	0.005823	9.786418e-05	
599.259000	2.683687e+00	7.066613	1.402943e+03	11.797897	2.894998e-02	-0.467381	-2.980983e-03	0.005877	1.089465e-04	
599.734000	2.590459e+00	3.779112	1.400863e+03	12.036622	3.271599e-02	-0.476960	-3.388926e-03	0.006000	1.247880e-04	
600.209000	2.739755e+00	3.072890	1.419331e+03	9.929317	2.470824e-02	-0.397796	-2.719754e-03	0.005038	9.409853e-05	
600.684000	2.498921e+00	5.098672	1.413114e+03	10.662499	2.466254e-02	-0.426637	-2.699312e-03	0.005403	9.928724e-05	
601.159000	2.805294e+00	4.722464	1.416817e+03	10.138942	2.063039e-02	-0.404703	-2.741919e-03	0.005116	8.013681e-05	
601.634000	2.691966e+00	5.506066	1.409805e+03	11.137347	2.919266e-02	-0.446404	-3.034571e-03	0.005668	1.117400e-04	
602.109000	2.573505e+00	3.672724	1.397083e+03	12.628407	3.271666e-02	-0.503361	-3.450194e-03	0.006372	1.269041e-04	
602.584000	2.517646e+00	2.812496	1.423963e+03	9.454584	2.656260e-02	-0.380312	-2.874636e-03	0.004832	1.050259e-04	
603.060000	2.644173e+00	4.476602	1.408971e+03	11.208370	2.830663e-02	-0.447752	-2.976107e-03	0.005663	1.100576e-04	
603.535000	2.490740e+00	5.316697	1.438906e+03	7.483015	1.056479e-02	-0.304805	-1.685064e-03	0.003898	4.004375e-05	
604.010000	2.787702e+00	4.103506	1.396916e+03	12.636277	2.689838e-02	-0.506995	-3.208775e-03	0.006466	1.072078e-04	
604.485000	2.584251e+00	3.678767	1.400951e+03	11.984551	3.305499e-02	-0.472921	-3.511519e-03	0.005923	1.247778e-04	
604.961000	2.701272e+00	6.305090	1.416604e+03	10.173775	2.720611e-02	-0.403862	-2.939928e-03	0.005083	1.036582e-04	
605.436000	2.748367e+00	7.407769	1.417245e+03	10.156740	2.201592e-02	-0.404430	-2.674497e-03	0.005097	8.365349e-05	
605.911000	2.690022e+00	3.978495	1.421336e+03	9.633755	2.379406e-02	-0.386231	-2.770576e-03	0.004891	9.175742e-05	
606.387000	2.771752e+00	3.813600	1.407165e+03	11.450718	2.722731e-02	-0.461331	-3.103327e-03	0.005893	1.057857e-04	
606.862000	2.759029e+00	4.905992	1.406403e+03	11.581991	2.030894e-02	-0.468904	-2.315264e-03	0.006017	7.805458e-05	
607.338000	2.589678e+00	4.678285	1.427003e+03	9.050138	2.369725e-02	-0.366902	-2.654814e-03	0.004687	9.604944e-05	
607.813000	2.518383e+00	5.279344	1.405387e+03	11.698854	2.841790e-02	-0.468395	-3.056695e-03	0.005943	1.096657e-04	
608.289000	2.820841e+00	4.802711	1.420798e+03	9.544604	1.598718e-02	-0.383293	-2.394297e-03	0.004852	6.612011e-05	
608.764000	2.690981e+00	5.264080	1.438839e+03	7.438488	1.276968e-02	-0.297437	-2.122727e-03	0.003749	5.423638e-05	
609.240000	2.825480e+00	5.083594	1.408230e+03	11.086673	2.714995e-02	-0.439020	-2.860846e-03	0.005526	1.028859e-04	
609.715000	2.627865e+00	4.913854	1.424749e+03	9.364246	2.336529e-02	-0.376705	-2.762459e-03	0.004786	9.367334e-05	
610.191000	2.811467e+00	5.346472	1.404365e+03	11.581905	2.828768e-02	-0.460178	-3.056285e-03	0.005783	1.064766e-04	
610.667000	2.535960e+00	2.736234	1.428071e+03	8.707561	1.857268e-02	-0.348636	-2.293443e-03	0.004401	7.016739e-05	
611.143000	2.730179e+00	4.213538	1.444654e+03	6.763211	1.850761e-02	-0.272785	-2.472124e-03	0.003452	8.470839e-05	
611.618000	2.559804e+00	4.979841	1.401860e+03	11.867747	3.127223e-02	-0.470515	-3.234988e-03	0.005933	1.195574e-04	
612.094000	2.642687e+00	5.004573	1.399512e+03	12.379814	2.794615e-02	-0.498736	-2.932428e-03	0.006381	1.065356e-04	
612.570000	2.647893e+00	3.624987	1.406512e+03	11.397203	2.870342e-02	-0.451957	-3.106819e-03	0.005698	1.101853e-04	
613.046000	2.620791e+00	4.331203	1.385471e+03	13.858544	3.348191e-02	-0.545565	-3.419318e-03	0.006834	1.260886e-04	
613.522000	2.670187e+00	5.106341	1.398128e+03	12.415389	3.095533e-02	-0.493438	-3.239720e-03	0.006240	1.162815e-04	
613.998000	2.544353e+00	4.844296	1.427973e+03	8.907694	1.868099e-02	-0.360453	-2.477006e-03	0.004586	7.455975e-05	
614.474000	2.540738e+00	4.109876	1.418999e+03	9.932486	2.524289e-02	-0.397826	-2.956745e-03	0.005046	1.038491e-04	
614.950000	2.510002e+00	3.953143	1.418015e+03	9.981636	2.554686e-03	-0.401670	-3.036402e-03	0.005127	5.998775e-05	
615.426000	2.576958e+00	2.883282	1.407418e+03	11.059221	2.712633e-02	-0.432414	-2.888816e-03	0.005380	1.014956e-04	
615.902000	2.528689e+00	4.534823	1.412537e+03	10.724500	2.250844e-02	-0.427973	-2.614051e-03	0.005423	8.910002e-05	
616.378000	2.522037e+00	3.825919	1.412637e+03	10.722648	2.703551e-02	-0.428465	-3.061694e-03	0.005414	1.085156e-04	
616.854000	2.625761e+00	8.269640	1.410885e+03	10.933706	2.745176e-02	-0.436111	-2.885658e-03	0.005512	1.069908e-04	
617.330000	2.509199e+00	4.358144	1.431718e+03	8.454530	2.610989e-02	-0.342614	-2.953249e-03	0.004356	1.043485e-04	
617.806000	2.602118e+00	3.368192	1.411120e+03	10.813454	2.575760e-02	-0.427265	-2.921583e-03	0.005362	9.827001e-05	
618.282000	2.630203e+00	3.534589	1.393715e+03	12.918223	3.422991e-02	-0.510543	-3.512434e-03	0.006422	1.307040e-04	
618.759000	2.793229e+00	5.575211	1.391216e+03	13.520220	3.440608e-02	-0.544339	-3.593332e-03	0.006967	1.336354e-04	
619.235000	2.773485e+00	6.649952	1.413453e+03	10.588886	2.958117e-02	-0.423323	-3.107491e-03	0.005367	1.138124e-04	
619.711000	2.552887e+00	3.192252	1.415630e+03	10.272724	2.772019e-02	-0.412189	-2.854069e-03	0.005226	1.054816e-04	
620.188000	2.634351e+00	6.008364	1.414673e+03	10.535589	1.527926e-02	-0.420891	-2.879599e-03	0.005319	8.156770e-05	
620.664000	2.495584e+00	5.671325	1.420813e+03	9.739359	2.469261e-02	-0.390813	-2.638608e-03	0.004959	9.431983e-05	
621.141000	2.632833e+00	3.966740	1.405126e+03	11.639943	2.880657e-02	-0.466824	-2.985794e-03	0.005945	1.110892e-04	
621.617000	2.556528e+00	3.951254	1.413839e+03	10.364771	2.319839e-02	-0.407706	-3.095743e-03	0.005095	9.953732e-05	
622.094000	2.714317e+00	3.744129	1.407984e+03	11.280688	2.857385e-02	-0.449724	-2.929866e-03	0.005702	1.081341e-04	
622.570000	2.470916e+00	3.380762	1.427037e+03	8.956359	1.628947e-02	-0.362620	-2.414772e-03	0.004632	7.057242e-05	
623.047000	2.467815e+00	4.918265	1.425503e+03	9.201025	2.515027e-02	-0.370992	-2.731400e-03	0.004727	9.831751e-05	
623.523000	2.833631e+00	4.500735	1.408912e+03	11.122563	2.964175e-02	-0.442473	-3.071358e-03	0.005592	1.109581e-04	
624.000000	3.641877e+00	8.633126	1.320350e+03	21.871862	4.040984e-02	-0.861460	-4.290068e-03	0.010865	1.357092e-04	
624.477000	2.572258e+00	5.022138	1.410144e+03	11.221100	2.496486e-02	-0.452068	-2.984423e-03	0.005759	1.018259e-04	
624.953000	2.529954e+00	6.283726	1.414083e+03	10.550830	2.668866e-02	-0.422020	-2.846150e-03	0.005350	1.044183e-04	
625.430000	2.612908e+00	4.329512	1.400790e+03	12.090675	3.179882e-02	-0.478530	-3.455749e-03	0.006004	1.235416e-04	
625.907000	2.556545e+00	5.356687	1.418913e+03	9.852490	2.302900e-02	-0.389086	-2.636892e-03	0.004859	8.815666e-05	
626.383000	2.472683e+00	5.933258	1.414485e+03	10.451223	2.729785e-02	-0.419065	-2.829151e-03	0.005321	1.056802e-04	
626.860000	2.473644e+00	4.007816	1.402195e+03	12.127226	2.582308e-02	-0.489185	-2.933232e-03	0.006261	1.015508e-04	
627.337000	2.686019e+00	2.552133	1.422657e+03	9.606926	2.649501e-02	-0.388948	-2.945653e-03	0.004973	1.050910e-04	
627.814000	2.618770e+00	5.801622	1.425075e+03	9.197501	2.199620e-02	-0.369098	-2.629600e-03	0.004677	8.649677e-05	
628.291000	2.871774e+00	4.451564	1.415789e+03	10.010076	2.444326e-02	-0.390029	-2.756541e-03	0.004832	9.505212e-05	
628.768000	2.699929e+00	3.552443	1.397504e+03	12.493066	2.932429e-02	-0.497597	-3.028505e-03	0.006301	1.133425e-04	
629.245000	2.823000e+00	4.470087	1.411964e+03	10.981898	2.652944e-02	-0.445142	-3.120884e-03	0.005719	1.115064e-04	
629.722000	2.833177e+00	3.965051	1.407027e+03	11.446401	2.715581e-02	-0.458185	-2.993120e-03	0.005812	1.012305e-04	
630.199000	2.424693e+00	5.527197	1.421762e+03	9.549501	2.425647e-02	-0.382058	-2.754088e-03	0.004819	9.472385e-05	
630.676000	2.702521e+00	4.810260	1.390026e+03	13.335372	2.904670e-02	-0.527079	-3.330544e-03	0.006643	1.148330e-04	
631.153000	2.743462e+00	5.861238	1.407522e+03	11.318004	2.838578e-02	-0.450469	-3.092315e-03	0.005695	1.104499e-04	
631.630000	2.530806e+00	4.911894	1.410397e+03	10.980602	2.820385e-02	-0.437799	-3.078426e-03	0.005534	1.083461e-04	
632.108000	2.516100e+00	3.463122	1.416805e+03	10.234374	2.411271e-02	-0.409851	-2.741591e-03	0.005191	9.404207e-05	
632.585000	2.606671e+00	3.905215	1.409240e+03	11.200664	3.119708e-02	-0.446167	-3.231749e-03	0.005623	1.202200e-04	
633.062000	2.759352e+00	4.381167	1.409744e+03	10.871286	2.833711e-02	-0.426310	-3.108168e-03	0.005316	1.103364e-04	
633.539000	2.709889e+00	3.388416	1.395136e+03	12.735659	3.160975e-02	-0.504342	-3.204823e-03	0.006352	1.189770e-04	
634.017000	2.534893e+00	3.653790	1.429181e+03	8.652990	2.371628e-02	-0.345934	-2.802345e-03	0.004364	1.001881e-04	
634.494000	2.705734e+00	3.298550	1.409534e+03	11.058583	2.228028e-02	-0.441344	-2.927168e-03	0.005581	8.351610e-05	
634.971000	2.635159e+00	3.606360	1.412062e+03	10.907941	2.824473e-02	-0.438642	-3.031288e-03	0.005581	1.092288e-04	
635.449000	2.499453e+00	4.965899	1.407777e+03	11.437571	2.767697e-02	-0.458092	-2.878960e-03	0.005829	1.050846e-04	
635.926000	2.625055e+00	5.340036	1.414755e+03	10.500102	2.673877e-02	-0.422910	-2.943112e-03	0.005393	1.056589e-04	
636.404000	2.524868e+00	6.194608	1.422013e+03	9.625900	2.639038e-02	-0.386431	-2.792354e-03	0.004897	1.036153e-04	
636.881000	2.548761e+00	4.415339	1.401213e+03	12.078676	3.228500e-02	-0.483225	-3.327173e-03	0.006142	1.216516e-04	
637.359000	2.659044e+00	5.270219	1.413643e+03	10.663727	2.180896e-02	-0.428343	-2.728903e-03	0.005453	9.008805e-05	
637.837000	2.638144e+00	2.711758	1.427913e+03	8.862571	1.548172e-02	-0.356194	-2.819469e-03	0.004538	7.521879e-05	
638.314000	2.550767e+00	4.039678	1.426579e+03	8.935834	1.974035e-02	-0.355237	-2.865877e-03	0.004459	8.629481e-05	
638.792000	2.634151e+00	4.970465	1.391007e+03	13.401957	2.873711e-02	-0.534118	-3.323088e-03	0.006767	1.143344e-04	
639.270000	2.631707e+00	4.768814	1.393883e+03	13.006548	3.144325e-02	-0.519357	-3.239894e-03	0.006576	1.188589e-04	
639.747000	2.795443e+00	5.048449	1.407569e+03	11.322151	2.034806e-02	-0.449767	-3.268681e-03	0.005680	9.481757e-05	
640.225000	2.470877e+00	4.035216	1.436986e+03	7.767447	1.911639e-02	-0.313340	-2.290895e-03	0.003991	7.739642e-05	
640.703000	2.511964e+00	5.003296	1.422842e+03	9.526538	2.280643e-02	-0.384114	-2.833883e-03	0.004892	9.464484e-05	
641.181000	2.670235e+00	3.915294	1.393236e+03	12.950942	3.562933e-02	-0.511836	-3.652022e-03	0.006437	1.374106e-04	
641.658000	2.465318e+00	4.699060	1.427849e+03	8.922107	1.790076e-02	-0.362631	-2.377583e-03	0.004635	7.203066e-05	
642.136000	2.430490e+00	5.809414	1.418053e+03	10.127309	2.570283e-02	-0.406143	-2.881814e-03	0.005158	1.031212e-04	
642.614000	2.651200e+00	3.225739	1.403893e+03	11.670891	2.597516e-02	-0.461617	-2.926561e-03	0.005823	9.656384e-05	
643.092000	3.260997e+00	9.392273	1.444865e+03	6.740559	2.256179e-02	-0.276036	-2.388345e-03	0.003567	1.013976e-04	
643.570000	2.539726e+00	4.736572	1.423481e+03	9.345457	1.797672e-02	-0.375848	-2.501079e-03	0.004764	7.341984e-05	
644.048000	2.573101e+00	2.513905	1.422678e+03	9.453288	2.099757e-02	-0.380680	-2.629164e-03	0.004858	8.629398e-05	
644.526000	2.547189e+00	3.647118	1.424608e+03	9.326386	2.330008e-02	-0.374684	-2.744032e-03	0.004757	9.247203e-05	
645.004000	2.677538e+00	8.060450	1.417090e+03	10.166129	2.381149e-02	-0.404716	-2.690344e-03	0.005106	8.775935e-05	
645.483000	2.551320e+00	4.948037	1.409764e+03	11.085686	2.557067e-02	-0.441733	-2.782625e-03	0.005566	9.786108e-05	
645.961000	2.628586e+00	3.795022	1.410120e+03	11.079958	2.852416e-02	-0.444651	-3.002548e-03	0.005653	1.112021e-04	
646.439000	2.706969e+00	4.360147	1.401247e+03	12.137524	3.203359e-02	-0.484026	-3.387874e-03	0.006121	1.247809e-04	
646.917000	2.655768e+00	2.821178	1.393229e+03	12.962334	3.086883e-02	-0.511144	-3.367143e-03	0.006415	1.163380e-04	
647.395000	2.710035e+00	3.752627	1.391891e+03	13.309103	3.131175e-02	-0.529974	-3.314972e-03	0.006719	1.204550e-04	
647.874000	2.913562e+00	5.235055	1.398233e+03	12.356255	3.183895e-02	-0.492687	-3.297504e-03	0.006229	1.199291e-04	
648.352000	2.793447e+00	5.813587	1.420406e+03	9.864325	1.577366e-02	-0.400630	-2.723916e-03	0.005132	7.614296e-05	
648.830000	2.643709e+00	9.590424	1.405368e+03	11.624286	2.886534e-02	-0.463342	-3.291622e-03	0.005859	1.116835e-04	
649.309000	2.774003e+00	6.984102	1.389207e+03	13.687362	3.221929e-02	-0.549020	-3.335823e-03	0.006980	1.204836e-04	
649.787000	2.612887e+00	4.261889	1.396722e+03	12.706152	3.099333e-02	-0.508118	-3.170682e-03	0.006460	1.177861e-04	
650.266000	2.567776e+00	4.452282	1.406720e+03	11.497314	3.095935e-02	-0.459812	-3.280767e-03	0.005833	1.206457e-04	
650.744000	2.727571e+00	3.781584	1.413711e+03	10.520831	2.578864e-02	-0.420705	-3.042154e-03	0.005329	1.032270e-04	
651.223000	2.677251e+00	5.898781	1.401713e+03	11.839929	2.752825e-02	-0.467885	-2.913774e-03	0.005878	1.027707e-04	
651.701000	2.578610e+00	4.187165	1.408668e+03	11.210494	2.675979e-02	-0.447534	-2.944966e-03	0.005661	1.019671e-04	
652.180000	2.811863e+00	4.363967	1.391643e+03	13.365594	3.322714e-02	-0.535328	-3.391060e-03	0.006808	1.272457e-04	
652.658000	2.522935e+00	3.335013	1.435647e+03	7.926416	1.899153e-02	-0.321379	-2.204284e-03	0.004097	7.395078e-05	
653.137000	2.648088e+00	5.295589	1.416641e+03	10.429642	1.989477e-02	-0.422879	-2.908445e-03	0.005414	8.524615e-05	
653.616000	2.528515e+00	4.869650	1.410714e+03	11.009568	2.662254e-02	-0.442371	-2.955093e-03	0.005632	1.047952e-04	
654.095000	2.528073e+00	5.777822	1.433207e+03	8.410048	1.616362e-02	-0.341589	-2.726828e-03	0.004332	7.825279e-05	
654.573000	2.719325e+00	3.522998	1.429026e+03	8.756101	2.332266e-02	-0.352203	-2.810922e-03	0.004480	9.337059e-05	
655.052000	3.009812e+00	4.411509	1.418968e+03	9.792716	2.020703e-02	-0.388263	-2.785181e-03	0.004871	7.781729e-05	
655.531000	2.754152e+00	4.996152	1.423216e+03	9.334874	2.754629e-02	-0.372300	-3.202277e-03	0.004680	1.148030e-04	
656.010000	2.538963e+00	4.485995	1.391869e+03	13.089354	2.945183e-02	-0.517399	-3.221939e-03	0.006493	1.139034e-04	
656.489000	2.809882e+00	4.462350	1.418936e+03	9.806330	2.657710e-02	-0.391020	-2.880414e-03	0.004945	1.021064e-04	
656.968000	2.577576e+00	3.885627	1.412380e+03	10.754696	2.538365e-02	-0.430028	-3.011259e-03	0.005444	1.007191e-04	
657.447000	2.486926e+00	4.978864	1.418733e+03	10.126167	1.774376e-02	-0.409040	-3.099743e-03	0.005215	8.352484e-05	
657.925000	2.533210e+00	5.559347	1.421338e+03	9.720094	2.398559e-02	-0.391957	-2.657270e-03	0.004989	9.382123e-05	
658.405000	2.590203e+00	5.209559	1.409167e+03	10.873242	2.429464e-02	-0.430846	-2.721132e-03	0.005416	9.057500e-05	
658.884000	2.842481e+00	5.406118	1.413238e+03	10.730183	2.471771e-02	-0.430274	-2.902377e-03	0.005461	1.012598e-04	
659.363000	2.735249e+00	3.892937	1.427361e+03	8.831738	1.394557e-02	-0.355032	-1.902159e-03	0.004503	4.615090e-05	
659.842000	2.601007e+00	7.679377	1.432972e+03	8.175381	2.038897e-02	-0.329328	-2.271878e-03	0.004179	8.071575e-05	
660.321000	2.640359e+00	4.966117	1.414061e+03	10.714073	2.634026e-02	-0.430331	-3.125934e-03	0.005470	1.064679e-04	
660.800000	2.872462e+00	5.111211	1.406419e+03	11.302406	3.009189e-02	-0.447070	-3.139397e-03	0.005626	1.136450e-04	
661.279000	2.574293e+00	4.874329	1.402609e+03	11.906529	3.181023e-02	-0.476669	-3.253373e-03	0.006047	1.214481e-04	
661.759000	2.913258e+00	5.617956	1.392497e+03	13.408312	2.950731e-02	-0.541699	-3.178051e-03	0.006947	1.148440e-04	
662.238000	2.565352e+00	6.981358	1.411304e+03	10.790432	2.819934e-02	-0.427560	-2.937159e-03	0.005365	1.084902e-04	
662.717000	2.762841e+00	5.251645	1.386196e+03	13.901038	3.326758e-02	-0.555739	-3.527841e-03	0.007063	1.281089e-04	
663.197000	2.836838e+00	6.336990	1.430529e+03	8.425614	1.813578e-02	-0.334003	-2.717523e-03	0.004172	8.308032e-05	
663.676000	2.658853e+00	5.560344	1.404691e+03	11.641407	2.938566e-02	-0.464964	-3.050895e-03	0.005887	1.103704e-04	
664.155000	2.478302e+00	6.487482	1.442106e+03	7.129757	1.510024e-02	-0.292186	-1.966203e-03	0.003745	5.535030e-05	
664.635000	2.551283e+00	6.624668	1.421999e+03	9.717666	2.400644e-02	-0.393918	-2.719976e-03	0.005023	9.524677e-05	
665.114000	2.666149e+00	4.978710	1.399290e+03	12.348541	2.949002e-02	-0.493851	-3.082748e-03	0.006262	1.110492e-04	
665.594000	2.650136e+00	3.017518	1.419534e+03	9.891831	2.592183e-02	-0.397432	-2.679599e-03	0.005043	9.593740e-05	
666.073000	2.556748e+00	5.531437	1.406618e+03	11.604432	2.955322e-02	-0.469289	-3.077623e-03	0.005998	1.117569e-04	
666.553000	2.579191e+00	6.323656	1.417278e+03	10.328603	2.450885e-02	-0.421184	-2.582179e-03	0.005408	9.563056e-05	
667.033000	2.697412e+00	3.345048	1.398662e+03	12.492990	2.932826e-02	-0.500225	-3.098363e-03	0.006349	1.118553e-04	
667.512000	2.537131e+00	4.830727	1.439025e+03	7.672539	2.073879e-02	-0.315735	-2.465974e-03	0.004057	8.325789e-05	
667.992000	2.566236e+00	5.992667	1.407209e+03	11.184874	2.684741e-02	-0.444317	-3.020243e-03	0.005595	1.041842e-04	
668.472000	2.787470e+00	3.319845	1.395315e+03	12.835031	3.042631e-02	-0.512560	-3.234053e-03	0.006488	1.176174e-04	
668.951000	2.588543e+00	5.507213	1.417461e+03	10.286766	2.609255e-02	-0.415769	-2.897639e-03	0.005295	1.050523e-04	
669.431000	2.675440e+00	5.860344	1.416536e+03	10.138618	1.939835e-02	-0.404124	-2.470340e-03	0.005093	7.633018e-05	
669.911000	2.606217e+00	6.616129	1.399392e+03	12.359400	2.939665e-02	-0.495397	-3.119340e-03	0.006291	1.134258e-04	
670.391000	2.630856e+00	3.400196	1.406477e+03	11.327447	2.763966e-02	-0.450805	-2.984547e-03	0.005686	1.051589e-04	
670.871000	2.506089e+00	4.678909	1.442687e+03	7.291350	6.365036e-03	-0.302199	-2.513404e-03	0.003906	4.440475e-05	
671.351000	2.758076e+00	5.111241	1.405922e+03	11.524904	2.944971e-02	-0.462334	-3.027656e-03	0.005869	1.139338e-04	
671.831000	2.646498e+00	9.262158	1.414055e+03	10.450800	2.592115e-02	-0.418713	-2.939301e-03	0.005281	9.977683e-05	
672.311000	2.630039e+00	8.212369	1.400917e+03	12.196248	3.103931e-02	-0.488568	-3.309918e-03	0.006199	1.224717e-04	
672.791000	2.507048e+00	5.745141	1.400433e+03	12.161088	2.885816e-02	-0.483155	-3.092094e-03	0.006080	1.096689e-04	
673.271000	2.604339e+00	5.235313	1.415461e+03	10.551023	2.717820e-02	-0.427255	-2.987015e-03	0.005460	1.057010e-04	
673.751000	2.647161e+00	8.608850	1.431678e+03	8.367905	2.224864e-02	-0.334963	-2.437919e-03	0.004211	8.972328e-05	
674.231000	2.672585e+00	6.071544	1.392755e+03	13.227117	3.199552e-02	-0.531182	-3.280759e-03	0.006765	1.222785e-04	
674.711000	2.775813e+00	5.243249	1.399753e+03	12.228821	2.778825e-02	-0.486505	-2.958704e-03	0.006141	1.034423e-04	
675.191000	2.662540e+00	5.807218	1.406870e+03	11.433770	2.906285e-02	-0.458913	-3.090987e-03	0.005834	1.123632e-04	
675.671000	2.624906e+00	7.510739	1.438121e+03	7.536723	1.115377e-02	-0.304302	-1.877309e-03	0.003843	4.360155e-05	
676.152000	2.963006e+00	7.338098	1.414838e+03	10.336137	2.444509e-02	-0.414205	-2.718198e-03	0.005246	9.291517e-05	
676.632000	2.458499e+00	3.930865	1.424749e+03	9.189215	2.206904e-02	-0.369883	-2.642885e-03	0.004690	8.542410e-05	
677.112000	2.474718e+00	6.704573	1.405395e+03	11.620893	2.880973e-02	-0.465610	-3.161249e-03	0.005900	1.140570e-04	
677.593000	2.571240e+00	4.106928	1.409473e+03	11.206813	2.661619e-02	-0.451196	-2.945485e-03	0.005741	1.015564e-04	
678.073000	2.607490e+00	5.866339	1.412387e+03	10.860680	2.650592e-02	-0.440356	-3.013454e-03	0.005634	1.048272e-04	
678.553000	2.693801e+00	5.977677	1.415973e+03	10.316306	2.520002e-02	-0.416805	-2.635899e-03	0.005307	9.669095e-05	
679.034000	2.689467e+00	5.310927	1.414724e+03	10.511208	2.113415e-02	-0.424687	-2.793389e-03	0.005420	8.632873e-05	
679.514000	2.524952e+00	4.745505	1.406410e+03	11.534858	2.425111e-02	-0.465541	-2.921808e-03	0.005943	9.631133e-05	
679.995000	2.665189e+00	5.938382	1.413072e+03	10.390913	2.643826e-02	-0.410083	-2.879037e-03	0.005129	1.014218e-04	
680.476000	2.746675e+00	5.975182	1.406465e+03	11.432071	2.781898e-02	-0.458482	-3.084579e-03	0.005808	1.091844e-04	
680.956000	2.665632e+00	6.214540	1.389537e+03	13.569409	3.364515e-02	-0.544176	-3.547939e-03	0.006912	1.307237e-04	
681.437000	2.551351e+00	4.543334	1.413874e+03	10.639260	2.903565e-02	-0.429887	-3.117285e-03	0.005477	1.131052e-04	
681.917000	2.550553e+00	4.548992	1.414452e+03	10.559138	2.543899e-02	-0.427367	-2.776327e-03	0.005456	9.668063e-05	
682.398000	2.580565e+00	12.408998	1.422887e+03	9.466019	1.917574e-02	-0.382107	-2.329851e-03	0.004863	7.554811e-05	
682.879000	2.696828e+00	4.223130	1.414056e+03	10.566919	2.694472e-02	-0.424067	-3.075683e-03	0.005371	1.091599e-04	
683.360000	2.610096e+00	4.730612	1.424969e+03	9.245850	2.456630e-02	-0.371543	-2.807955e-03	0.004699	9.812278e-05	
683.840000	2.613981e+00	5.698902	1.397270e+03	12.628793	3.021671e-02	-0.506786	-3.197717e-03	0.006439	1.148727e-04	
684.321000	2.571387e+00	7.181326	1.413404e+03	10.537923	1.901175e-02	-0.421113	-2.646902e-03	0.005325	7.498857e-05	
684.802000	2.669057e+00	5.323923	1.408573e+03	11.197382	2.491124e-02	-0.449781	-2.750713e-03	0.005703	9.345796e-05	
685.283000	2.692606e+00	5.513658	1.415042e+03	10.628270	2.576939e-02	-0.432343	-2.893132e-03	0.005549	1.048694e-04	
685.764000	2.653844e+00	4.744822	1.396688e+03	12.645834	3.081843e-02	-0.506469	-3.184142e-03	0.006420	1.147560e-04	
686.245000	2.489963e+00	5.494845	1.416534e+03	10.303294	2.488658e-02	-0.415523	-2.771546e-03	0.005280	9.609451e-05	
686.726000	2.777816e+00	5.422797	1.408300e+03	11.150341	2.112119e-02	-0.445636	-2.531712e-03	0.005655	8.015302e-05	
687.207000	2.777628e+00	5.638258	1.404441e+03	11.791575	2.649300e-02	-0.479475	-2.829838e-03	0.006167	1.014308e-04	
687.688000	2.633283e+00	2.545496	1.411529e+03	10.842768	2.467726e-02	-0.434269	-3.035717e-03	0.005491	1.022438e-04	
688.169000	2.514385e+00	5.908906	1.432688e+03	8.332031	1.590664e-02	-0.339316	-2.216347e-03	0.004336	6.232989e-05	
688.650000	2.450193e+00	5.731809	1.424944e+03	9.176132	2.335748e-02	-0.366783	-2.730328e-03	0.004615	9.388581e-05	
689.131000	2.708411e+00	7.610869	1.423067e+03	9.496083	2.156514e-02	-0.383577	-2.538001e-03	0.004873	8.560184e-05	
689.612000	2.781826e+00	5.541121	1.416168e+03	10.344319	2.182241e-02	-0.417123	-2.542428e-03	0.005293	8.643447e-05	
690.094000	2.671125e+00	5.137764	1.405355e+03	11.670293	3.174732e-02	-0.469668	-3.295603e-03	0.005967	1.237268e-04	
690.575000	2.656184e+00	5.905289	1.400587e+03	12.164412	3.599615e-02	-0.487261	-3.647577e-03	0.006177	1.387034e-04	
691.056000	2.680441e+00	5.235978	1.392931e+03	13.119628	3.077254e-02	-0.526562	-3.241876e-03	0.006695	1.154556e-04	
691.537000	2.577011e+00	3.201707	1.405565e+03	11.686764	2.769442e-02	-0.473431	-3.006692e-03	0.006054	1.081379e-04	
692.019000	2.447692e+00	5.891097	1.417608e+03	10.010956	2.450298e-02	-0.397244	-2.803360e-03	0.004972	9.322605e-05	
692.500000	2.639707e+00	3.627537	1.417043e+03	10.118652	2.652410e-02	-0.405619	-3.061328e-03	0.005130	1.039711e-04	
692.982000	2.605644e+00	4.780868	1.421556e+03	9.645181	1.435726e-02	-0.391421	-2.567099e-03	0.004992	5.824222e-05	
693.463000	2.557340e+00	5.326943	1.421449e+03	9.691864	2.240410e-02	-0.390582	-2.809423e-03	0.004958	9.527316e-05	
693.944000	2.729479e+00	6.786786	1.423739e+03	9.164882	2.431881e-02	-0.364018	-2.607324e-03	0.004578	9.614726e-05	
694.426000	2.680855e+00	4.077190	1.402323e+03	11.924617	2.849929e-02	-0.475080	-3.111123e-03	0.005991	1.091373e-04	
694.908000	2.541059e+00	5.843919	1.406528e+03	11.448745	2.755968e-02	-0.461023	-2.911381e-03	0.005856	1.078448e-04	
695.389000	2.966380e+00	5.684165	1.401922e+03	11.932569	2.662347e-02	-0.478793	-2.819746e-03	0.006092	1.039417e-04	
695.871000	3.038374e+00	9.029158	1.399999e+03	12.141052	3.214631e-02	-0.483416	-3.261304e-03	0.006090	1.235472e-04	
696.352000	2.890968e+00	5.337644	1.398331e+03	12.236751	3.205768e-02	-0.487140	-3.232980e-03	0.006139	1.212470e-04	
696.834000	2.512738e+00	4.339078	1.429535e+03	8.582927	2.179400e-02	-0.342430	-2.606256e-03	0.004279	8.486850e-05	
697.316000	2.571342e+00	6.169006	1.427509e+03	9.055140	2.035459e-02	-0.369762	-2.427650e-03	0.004734	8.017062e-05	
697.798000	2.609264e+00	6.963160	1.408685e+03	11.028346	2.350990e-02	-0.436915	-2.701464e-03	0.005476	8.930126e-05	
698.279000	2.693527e+00	6.248203	1.437262e+03	7.719276	2.114127e-02	-0.316648	-2.354708e-03	0.004060	8.815627e-05	
698.761000	2.725682e+00	5.431566	1.417984e+03	10.062998	2.545324e-02	-0.405506	-2.773603e-03	0.005142	9.839712e-05	
699.243000	2.630359e+00	10.906235	1.396162e+03	12.625648	3.070277e-02	-0.501259	-3.388744e-03	0.006294	1.147155e-04	
699.725000	2.596129e+00	7.645886	1.425651e+03	9.125356	2.234637e-02	-0.369275	-2.627978e-03	0.004688	8.705836e-05	
700.207000	2.615472e+00	6.702092	1.406055e+03	11.569142	2.864927e-02	-0.462252	-3.225759e-03	0.005835	1.148359e-04	
700.689000	2.526068e+00	5.503548	1.422967e+03	9.532049	2.174476e-02	-0.386378	-2.460943e-03	0.004930	8.192011e-05	
701.171000	2.674065e+00	7.276458	1.399931e+03	12.106746	3.035713e-02	-0.483102	-3.357395e-03	0.006098	1.097088e-04	
701.653000	2.619245e+00	5.466248	1.425462e+03	9.116925	1.712455e-02	-0.368529	-2.487994e-03	0.004676	6.903494e-05	
702.135000	2.601553e+00	8.154575	1.427996e+03	8.787545	2.473842e-02	-0.354337	-2.805980e-03	0.004484	9.647235e-05	
702.617000	2.777154e+00	5.093023	1.431899e+03	8.335801	1.352447e-02	-0.337507	-2.301768e-03	0.004281	5.898862e-05	
703.099000	2.741352e+00	6.757828	1.426214e+03	9.072141	1.949927e-02	-0.367524	-2.599324e-03	0.004683	7.798891e-05	
703.581000	2.587596e+00	7.472454	1.412358e+03	10.856023	2.591287e-02	-0.441047	-2.861350e-03	0.005649	1.030654e-04	
704.063000	2.535716e+00	7.753800	1.417524e+03	10.094813	2.482866e-02	-0.408840	-2.734951e-03	0.005203	9.671633e-05	
704.546000	2.734346e+00	10.196779	1.406847e+03	11.284717	2.781513e-02	-0.457135	-2.913329e-03	0.005774	1.058459e-04	
705.028000	2.587620e+00	6.524021	1.416224e+03	10.049135	2.323414e-02	-0.401855	-2.634912e-03	0.005062	8.898852e-05	
705.510000	2.584326e+00	4.139405	1.423828e+03	9.323738	2.495423e-02	-0.378163	-2.750859e-03	0.004814	1.016874e-04	
705.992000	2.736577e+00	6.798421	1.404640e+03	11.605641	2.802118e-02	-0.462575	-2.989904e-03	0.005836	1.062360e-04	
706.475000	2.552338e+00	6.233296	1.440572e+03	7.212772	1.057953e-02	-0.289428	-1.772891e-03	0.003624	3.515569e-05	
706.957000	2.607427e+00	7.083236	1.415979e+03	10.445936	2.397619e-02	-0.422985	-2.817519e-03	0.005392	9.598640e-05	
707.440000	2.765424e+00	5.562748	1.415840e+03	10.280717	2.691304e-02	-0.413453	-3.021363e-03	0.005245	1.040964e-04	
707.922000	2.755713e+00	5.061192	1.393712e+03	13.042777	3.115872e-02	-0.527074	-3.275098e-03	0.006723	1.165545e-04	
708.404000	2.769652e+00	6.609064	1.407072e+03	11.359056	2.657226e-02	-0.458103	-2.914216e-03	0.005835	1.019482e-04	
708.887000	2.569902e+00	9.352028	1.412363e+03	10.641956	2.714490e-02	-0.426147	-2.875925e-03	0.005382	1.047307e-04	
709.369000	2.872216e+00	5.513994	1.422817e+03	9.394326	2.453521e-02	-0.378958	-2.762108e-03	0.004805	9.579206e-05	
709.852000	2.737493e+00	7.257154	1.416394e+03	10.228129	1.543657e-02	-0.414822	-2.816237e-03	0.005303	7.277695e-05	
710.335000	2.481145e+00	9.606696	1.440242e+03	7.286649	1.060624e-02	-0.298508	-2.551173e-03	0.003809	5.445614e-05	
710.817000	2.409448e+00	9.465718	1.423090e+03	9.333569	2.419083e-02	-0.375419	-2.801573e-03	0.004752	9.792110e-05	
711.300000	2.900177e+00	10.120878	1.387155e+03	13.675010	2.347159e-02	-0.543791	-3.052040e-03	0.006858	8.412044e-05	
711.783000	2.730638e+00	7.375924	1.409243e+03	11.035750	3.013437e-02	-0.441500	-3.181149e-03	0.005559	1.138914e-04	
712.265000	2.586175e+00	5.853278	1.431084e+03	8.430543	2.597981e-02	-0.343006	-2.771755e-03	0.004370	1.050698e-04	
712.748000	2.581072e+00	8.320645	1.421383e+03	9.333649	2.480467e-02	-0.371422	-2.638616e-03	0.004635	9.522088e-05	
713.231000	2.647192e+00	9.636441	1.404693e+03	11.743708	2.852421e-02	-0.474352	-3.062348e-03	0.006037	1.122974e-04	
713.714000	2.702057e+00	7.663712	1.392684e+03	13.127305	3.222638e-02	-0.525950	-3.285310e-03	0.006665	1.228920e-04	
714.197000	2.689187e+00	7.291003	1.417074e+03	9.822882	2.125443e-02	-0.389421	-2.530510e-03	0.004849	8.008856e-05	
714.680000	3.110332e+00	6.354922	1.402388e+03	11.962699	2.990416e-02	-0.480740	-3.157289e-03	0.006106	1.158844e-04	
715.163000	2.582761e+00	6.095072	1.397421e+03	12.522605	3.202795e-02	-0.501369	-3.304691e-03	0.006350	1.228844e-04	
715.646000	2.771610e+00	7.545103	1.418477e+03	9.756970	2.719401e-02	-0.391690	-2.959484e-03	0.004947	1.064878e-04	
716.129000	2.651331e+00	8.368916	1.404810e+03	11.606018	2.456295e-02	-0.467816	-3.033834e-03	0.005948	9.595250e-05	
716.612000	2.639931e+00	9.460417	1.411755e+03	10.758208	2.382877e-02	-0.432324	-2.938060e-03	0.005467	9.708494e-05	
717.095000	2.709478e+00	8.732556	1.406343e+03	11.707833	2.677198e-02	-0.476189	-3.003385e-03	0.006096	1.058729e-04	
717.578000	2.532234e+00	7.686364	1.411631e+03	10.651414	2.141135e-02	-0.426456	-2.708446e-03	0.005363	8.722676e-05	
718.061000	2.741457e+00	15.004709	1.432019e+03	8.103713	2.087623e-02	-0.325161	-2.540421e-03	0.004086	8.232351e-05	
718.544000	2.702999e+00	7.420732	1.418047e+03	9.933150	2.502497e-02	-0.400165	-2.985211e-03	0.005060	9.685795e-05	
719.027000	2.928610e+00	9.227479	1.398112e+03	12.405824	2.866497e-02	-0.498182	-3.181941e-03	0.006305	1.083715e-04	
719.511000	2.663116e+00	8.716434	1.403247e+03	11.821886	2.987384e-02	-0.477526	-3.198854e-03	0.006066	1.168639e-04	
719.994000	2.644246e+00	7.877387	1.407719e+03	11.090282	2.959840e-02	-0.441661	-3.134824e-03	0.005547	1.109945e-04	
720.477000	2.712313e+00	7.498208	1.421033e+03	9.622965	2.520287e-02	-0.390987	-2.706963e-03	0.004981	9.721338e-05	
720.961000	2.683456e+00	7.005976	1.409063e+03	11.057264	2.698014e-02	-0.444455	-2.936434e-03	0.005620	1.040344e-04	
721.444000	2.617648e+00	8.097918	1.421186e+03	9.630075	1.643666e-02	-0.391987	-2.545227e-03	0.005001	7.222680e-05	
721.927000	2.629346e+00	8.828002	1.408760e+03	10.925858	2.209831e-02	-0.439526	-2.806498e-03	0.005565	8.842056e-05	
722.411000	2.659564e+00	7.669287	1.405618e+03	11.784439	3.096626e-02	-0.482795	-3.247386e-03	0.006215	1.206902e-04	
722.894000	2.784515e+00	8.442145	1.404157e+03	11.617186	2.486836e-02	-0.462913	-3.049978e-03	0.005820	9.678834e-05	
723.378000	2.986386e+00	9.977330	1.405192e+03	11.784464	2.828760e-02	-0.481778	-3.039090e-03	0.006189	1.096852e-04	
723.861000	2.693554e+00	10.664046	1.413997e+03	10.354746	2.285920e-02	-0.415097	-2.552763e-03	0.005233	8.841706e-05	
724.345000	2.672080e+00	8.306236	1.404076e+03	11.699654	2.730972e-02	-0.475723	-2.860975e-03	0.006089	1.031096e-04	
724.829000	2.710829e+00	7.435958	1.411258e+03	10.813650	2.951705e-02	-0.435429	-3.070600e-03	0.005500	1.141726e-04	
725.312000	2.762738e+00	9.073472	1.402686e+03	11.897125	2.826134e-02	-0.480312	-3.051655e-03	0.006108	1.098553e-04	
725.796000	2.634454e+00	7.708879	1.409205e+03	11.131752	2.611282e-02	-0.449415	-2.880462e-03	0.005712	1.000376e-04	
726.280000	2.908381e+00	8.076169	1.412557e+03	10.634743	2.787679e-02	-0.429008	-2.927866e-03	0.005436	1.071567e-04	
726.763000	2.816509e+00	9.107421	1.406952e+03	11.516231	2.963764e-02	-0.468722	-3.157428e-03	0.005996	1.158639e-04	
727.247000	2.661788e+00	7.284900	1.399382e+03	12.292772	3.336528e-02	-0.494755	-3.411010e-03	0.006263	1.293932e-04	
727.731000	2.659329e+00	6.556697	1.390202e+03	13.433307	3.408594e-02	-0.539273	-3.566956e-03	0.006839	1.329172e-04	
728.215000	2.929177e+00	8.274442	1.395763e+03	12.650662	3.196760e-02	-0.507578	-3.302795e-03	0.006427	1.211459e-04	
728.699000	2.808909e+00	8.427138	1.394274e+03	12.820246	3.519263e-02	-0.513869	-3.592528e-03	0.006494	1.319418e-04	
729.183000	2.955745e+00	3.374516	1.393206e+03	13.155888	3.053689e-02	-0.535615	-3.202468e-03	0.006845	1.180369e-04	
729.666000	2.692974e+00	7.571528	1.415052e+03	10.378910	2.393807e-02	-0.420494	-2.618130e-03	0.005347	9.156209e-05	
730.150000	2.626777e+00	8.427880	1.409412e+03	11.073268	2.594082e-02	-0.449275	-2.802653e-03	0.005720	1.012072e-04	
730.634000	3.073232e+00	9.111980	1.418049e+03	9.986905	2.151442e-02	-0.405186	-2.542619e-03	0.005158	8.416561e-05	
731.119000	2.635273e+00	8.636914	1.407021e+03	11.440855	3.001797e-02	-0.465833	-3.224617e-03	0.005970	1.187934e-04	
731.603000	2.518217e+00	10.523165	1.407327e+03	11.383585	2.833701e-02	-0.462023	-2.992413e-03	0.005890	1.099628e-04	
732.087000	2.657282e+00	8.405580	1.420888e+03	9.476216	2.055697e-02	-0.380224	-2.469086e-03	0.004781	7.719615e-05	
732.571000	2.738979e+00	8.990651	1.423403e+03	9.410342	2.094808e-02	-0.384361	-2.623260e-03	0.004911	8.570718e-05	
733.055000	2.526979e+00	10.031348	1.432273e+03	8.160978	1.501433e-02	-0.333119	-2.408617e-03	0.004238	6.237442e-05	
733.539000	2.520266e+00	10.089020	1.418456e+03	10.040946	2.482727e-02	-0.411065	-2.797358e-03	0.005269	9.840709e-05	
734.023000	2.727588e+00	9.283781	1.407115e+03	11.422313	2.458269e-02	-0.462429	-2.892399e-03	0.005883	9.400901e-05	
734.508000	2.922239e+00	7.368284	1.376358e+03	15.103234	3.524093e-02	-0.604892	-3.638562e-03	0.007672	1.326651e-04	
734.992000	2.709007e+00	9.384739	1.393671e+03	12.932420	2.835392e-02	-0.521351	-3.200024e-03	0.006636	1.105612e-04	
735.476000	2.649304e+00	8.113658	1.416409e+03	10.263420	2.228126e-02	-0.420850	-2.844397e-03	0.005398	8.760984e-05	
735.961000	2.698032e+00	9.171686	1.409015e+03	11.224253	2.456503e-02	-0.459660	-2.854928e-03	0.005902	9.908990e-05	
736.445000	2.899009e+00	12.014485	1.401310e+03	12.000056	2.445404e-02	-0.484549	-2.818886e-03	0.006157	9.399636e-05	
736.930000	3.313194e+00	7.755550	1.490086e+03	1.214207	1.048180e-02	-0.069298	-1.601640e-03	0.000999	6.942926e-05	
737.414000	2.827265e+00	7.743596	1.395167e+03	12.651738	2.978831e-02	-0.505582	-3.193874e-03	0.006372	1.119161e-04	
737.899000	2.651419e+00	8.703434	1.409577e+03	11.032860	2.941319e-02	-0.446245	-3.299755e-03	0.005672	1.178035e-04	
738.383000	2.521994e+00	9.539909	1.415711e+03	10.303085	2.596231e-02	-0.418509	-2.838705e-03	0.005321	9.976177e-05	
738.868000	2.856405e+00	8.593022	1.402800e+03	11.858316	2.796747e-02	-0.477125	-3.099838e-03	0.006046	1.087357e-04	
739.352000	2.880855e+00	8.861445	1.394792e+03	12.653066	3.324094e-02	-0.505304	-3.484847e-03	0.006349	1.237008e-04	
739.837000	2.702382e+00	8.190361	1.393221e+03	13.054034	3.116446e-02	-0.529401	-3.397936e-03	0.006773	1.215233e-04	
740.322000	2.849370e+00	8.991303	1.402798e+03	11.953933	2.858549e-02	-0.487236	-3.019003e-03	0.006244	1.104662e-04	
740.806000	2.653950e+00	8.664475	1.403124e+03	11.859908	2.787445e-02	-0.479422	-2.949767e-03	0.006102	1.076234e-04	
741.291000	2.887280e+00	10.017875	1.404981e+03	11.487522	3.014951e-02	-0.461064	-3.171619e-03	0.005827	1.145785e-04	
741.776000	3.286480e+00	7.928096	1.420652e+03	9.539765	2.815307e-02	-0.383225	-3.056439e-03	0.004816	1.076372e-04	
742.261000	2.565781e+00	8.572095	1.415063e+03	10.275829	2.886580e-02	-0.413856	-3.232199e-03	0.005223	1.137078e-04	
742.746000	2.734359e+00	11.110304	1.406550e+03	11.467515	2.842302e-02	-0.464151	-3.042431e-03	0.005905	1.104088e-04	
743.230000	2.762349e+00	9.990049	1.432395e+03	8.184829	1.416866e-02	-0.332656	-2.471477e-03	0.004215	5.809536e-05	
743.715000	3.236864e+00	5.336911	1.425818e+03	9.027189	2.119498e-02	-0.365676	-2.611537e-03	0.004636	8.278598e-05	
744.200000	2.629211e+00	10.045146	1.425205e+03	9.079234	1.682010e-02	-0.371079	-2.618426e-03	0.004726	7.272955e-05	
744.685000	2.681136e+00	7.842853	1.413153e+03	10.606236	2.562748e-02	-0.430495	-2.992346e-03	0.005486	1.040891e-04	
745.170000	2.765877e+00	7.896978	1.399297e+03	12.430336	3.029160e-02	-0.504963	-3.199535e-03	0.006457	1.177207e-04	
745.655000	2.777732e+00	10.054354	1.414183e+03	10.608507	2.316747e-02	-0.435637	-2.740262e-03	0.005616	9.189991e-05	
746.140000	2.889770e+00	9.639678	1.407648e+03	11.253620	3.043032e-02	-0.453359	-3.204804e-03	0.005741	1.212690e-04	
746.625000	2.602433e+00	8.887172	1.414035e+03	10.364457	2.231031e-02	-0.416134	-2.713611e-03	0.005241	8.715537e-05	
747.111000	2.806330e+00	10.875149	1.402724e+03	11.896611	2.895627e-02	-0.483847	-3.137148e-03	0.006186	1.141796e-04	
747.596000	2.750220e+00	8.731707	1.413535e+03	10.584277	2.496866e-02	-0.432026	-2.832771e-03	0.005529	9.975068e-05	
748.081000	2.831094e+00	8.841106	1.438523e+03	7.443628	1.057432e-02	-0.304710	-1.640050e-03	0.003862	4.044429e-05	
748.566000	2.828142e+00	8.816786	1.404583e+03	11.580779	2.929345e-02	-0.468706	-3.332159e-03	0.005964	1.177462e-04	
749.051000	2.800264e+00	8.099244	1.399067e+03	12.062910	3.153982e-02	-0.481930	-3.229203e-03	0.006075	1.195274e-04	
749.537000	2.834394e+00	3.568156	1.409916e+03	11.038776	2.680332e-02	-0.445775	-2.910899e-03	0.005651	1.032170e-04	
750.022000	2.780073e+00	8.485398	1.403871e+03	11.565723	2.736140e-02	-0.464787	-2.926682e-03	0.005876	1.039191e-04	
750.508000	2.955558e+00	9.976332	1.414391e+03	10.440868	2.497955e-02	-0.420359	-2.849804e-03	0.005315	9.776256e-05	
750.993000	2.869249e+00	9.487440	1.389443e+03	13.484411	3.243995e-02	-0.542893	-3.362421e-03	0.006905	1.254742e-04	
751.478000	2.769825e+00	8.390173	1.403742e+03	11.624429	2.756779e-02	-0.465895	-2.975160e-03	0.005876	1.073729e-04	
751.964000	2.880710e+00	9.809250	1.406451e+03	11.394997	2.863180e-02	-0.462924	-2.999315e-03	0.005910	1.095335e-04	
752.449000	2.663119e+00	10.858426	1.419144e+03	9.946051	1.839497e-02	-0.406051	-2.596370e-03	0.005193	7.866858e-05	
752.935000	2.602939e+00	8.868345	1.404113e+03	11.649531	3.167927e-02	-0.468974	-3.259709e-03	0.005926	1.230453e-04	
753.420000	2.664956e+00	8.339755	1.423181e+03	9.330108	1.587598e-02	-0.379379	-2.355374e-03	0.004814	6.111655e-05	
753.906000	2.537694e+00	9.951790	1.401462e+03	12.038614	3.188661e-02	-0.487497	-3.321099e-03	0.006200	1.224105e-04	
754.392000	2.803722e+00	11.902888	1.415226e+03	10.585611	2.000767e-02	-0.434969	-2.609136e-03	0.005593	8.152638e-05	
754.877000	9.309745e+00	5.189173	1.441504e+03	7.266757	3.074652e-02	-0.309004	-3.608781e-03	0.004090	1.172607e-04	
755.363000	2.763192e+00	9.711337	1.420568e+03	9.551375	2.269889e-02	-0.384678	-2.594190e-03	0.004849	9.456005e-05	
755.849000	3.186961e+00	9.652143	1.436033e+03	7.728366	1.624086e-02	-0.316043	-2.323051e-03	0.004026	7.116132e-05	
756.335000	3.052616e+00	9.989516	1.384295e+03	14.028862	2.792503e-02	-0.562425	-3.112204e-03	0.007130	1.021412e-04	
756.820000	2.651570e+00	8.862258	1.410850e+03	10.895611	2.766932e-02	-0.444567	-2.949101e-03	0.005685	1.075850e-04	
757.306000	2.775538e+00	9.725064	1.396606e+03	12.621562	3.205148e-02	-0.510854	-3.318194e-03	0.006517	1.209361e-04	
757.792000	2.755128e+00	9.543739	1.412707e+03	10.573277	2.669174e-02	-0.423547	-2.845171e-03	0.005319	1.005662e-04	
758.278000	2.855197e+00	9.063086	1.405496e+03	11.528858	1.874862e-02	-0.468100	-3.019066e-03	0.005984	9.106591e-05	
758.764000	2.820726e+00	10.220578	1.436825e+03	7.612171	2.000153e-02	-0.311816	-2.313276e-03	0.003965	7.689934e-05	
759.250000	2.592697e+00	11.851670	1.409375e+03	11.066531	3.068347e-02	-0.447357	-3.255604e-03	0.005662	1.206281e-04	
759.736000	2.575261e+00	10.686429	1.411558e+03	10.711168	2.441466e-02	-0.431178	-2.818292e-03	0.005444	9.729071e-05	
760.222000	2.896463e+00	11.376082	1.403690e+03	11.750078	2.572701e-02	-0.475641	-2.889890e-03	0.006049	1.019808e-04	
760.708000	2.884418e+00	8.339982	1.426860e+03	8.746041	7.221266e-03	-0.353662	-2.681194e-03	0.004461	3.801914e-05	
761.194000	2.698692e+00	10.601183	1.409542e+03	11.074207	2.141425e-02	-0.452379	-2.903531e-03	0.005792	8.999545e-05	
761.680000	2.608858e+00	12.190349	1.416844e+03	10.065629	1.690475e-02	-0.409517	-2.744342e-03	0.005218	7.881341e-05	
762.166000	2.687296e+00	6.639499	1.404012e+03	11.670903	2.817081e-02	-0.470236	-3.018587e-03	0.005950	1.071454e-04	
762.653000	2.754075e+00	7.763049	1.408672e+03	11.018538	2.806444e-02	-0.441303	-3.022391e-03	0.005553	1.057678e-04	
763.139000	2.679016e+00	8.121951	1.429750e+03	8.648370	2.228404e-02	-0.359392	-2.793040e-03	0.004641	9.667609e-05	
763.625000	2.940290e+00	10.697454	1.420569e+03	9.612044	2.276869e-02	-0.390267	-2.543827e-03	0.004946	8.894836e-05	
764.111000	2.626835e+00	10.392332	1.413952e+03	10.621129	2.553742e-02	-0.433384	-2.884526e-03	0.005525	1.014011e-04	
764.598000	2.847709e+00	11.246470	1.403376e+03	11.608983	2.575833e-02	-0.465128	-2.864098e-03	0.005871	1.005045e-04	
765.084000	2.827112e+00	9.015188	1.407476e+03	11.153177	2.594411e-02	-0.450269	-3.109245e-03	0.005706	1.062836e-04	
765.571000	2.562621e+00	11.697719	1.427764e+03	8.695081	2.094437e-02	-0.355971	-2.721529e-03	0.004537	8.663355e-05	
766.057000	2.808696e+00	9.808149	1.412871e+03	10.480044	2.140011e-02	-0.423353	-2.552892e-03	0.005363	8.494402e-05	
766.543000	2.789453e+00	10.133641	1.415384e+03	10.407610	2.514982e-02	-0.423515	-2.837754e-03	0.005388	9.834153e-05	
767.030000	2.927927e+00	10.488346	1.411779e+03	10.808141	2.296316e-02	-0.442049	-2.516638e-03	0.005663	9.127244e-05	
767.517000	2.829875e+00	9.676866	1.386577e+03	13.941421	3.655436e-02	-0.564208	-3.721269e-03	0.007196	1.421283e-04	
768.003000	2.918743e+00	11.729485	1.414239e+03	10.298357	2.462942e-02	-0.416153	-2.689072e-03	0.005261	9.320409e-05	
768.490000	2.716007e+00	9.990728	1.414150e+03	10.341120	2.751870e-02	-0.417601	-2.953041e-03	0.005288	1.073526e-04	
768.976000	2.730443e+00	11.731079	1.415017e+03	10.395954	2.390751e-02	-0.425094	-2.570554e-03	0.005441	9.147440e-05	
769.463000	2.843119e+00	13.210435	1.410254e+03	10.967513	2.652240e-02	-0.448161	-2.953825e-03	0.005735	1.041236e-04	
769.950000	3.058101e+00	11.292684	1.407504e+03	11.161317	2.082709e-02	-0.449664	-2.737085e-03	0.005701	7.692349e-05	
770.436000	2.692671e+00	14.074999	1.399379e+03	12.189024	2.759196e-02	-0.491002	-3.124809e-03	0.006218	1.075114e-04	
770.923000	2.844608e+00	10.092100	1.409528e+03	11.023962	2.099647e-02	-0.446228	-3.204097e-03	0.005661	9.395117e-05	
771.410000	2.970184e+00	10.157930	1.413887e+03	10.445876	2.590031e-02	-0.422010	-2.916078e-03	0.005339	1.005843e-04	
771.897000	2.824512e+00	12.239500	1.407270e+03	11.413942	2.774750e-02	-0.465676	-2.948595e-03	0.005951	1.065219e-04	
772.384000	3.025016e+00	10.239175	1.396845e+03	12.730790	3.347500e-02	-0.518527	-3.431103e-03	0.006642	1.275579e-04	
772.871000	2.823896e+00	10.496183	1.427484e+03	8.784087	2.655815e-02	-0.356782	-2.909981e-03	0.004508	1.054416e-04	
773.358000	2.721145e+00	12.220917	1.406503e+03	11.444534	2.315709e-02	-0.466634	-2.912781e-03	0.005969	8.879704e-05	
773.845000	2.570953e+00	10.752620	1.415439e+03	10.184350	2.429922e-02	-0.413733	-2.668216e-03	0.005246	9.497844e-05	
774.332000	2.748924e+00	11.993201	1.405368e+03	11.512194	2.583978e-02	-0.466470	-2.760001e-03	0.005934	9.764761e-05	
774.819000	3.202347e+00	7.725863	1.399101e+03	12.111347	2.867478e-02	-0.486635	-3.081549e-03	0.006154	1.080472e-04	
775.306000	2.550980e+00	11.803632	1.418671e+03	9.809275	2.985204e-02	-0.396950	-3.158974e-03	0.005005	1.179232e-04	
775.793000	2.811184e+00	12.747528	1.404961e+03	11.541861	2.327818e-02	-0.468339	-2.803515e-03	0.005962	8.922836e-05	
776.280000	2.657145e+00	14.658248	1.407699e+03	11.172081	2.799211e-02	-0.449983	-2.995327e-03	0.005692	1.077458e-04	
776.767000	3.152355e+00	12.349781	1.400062e+03	11.987530	2.129928e-02	-0.481368	-2.640104e-03	0.006095	8.505391e-05	
777.254000	2.578632e+00	11.868332	1.404968e+03	11.430466	2.778878e-02	-0.459929	-3.124454e-03	0.005804	1.082767e-04	
777.741000	2.602069e+00	15.135667	1.434957e+03	7.955062	8.199761e-03	-0.327205	-2.222345e-03	0.004168	3.428464e-05	
778.229000	2.634670e+00	13.042531	1.411827e+03	10.687898	2.545384e-02	-0.434249	-2.800643e-03	0.005515	1.003204e-04	
778.716000	2.719885e+00	13.253356	1.404498e+03	11.623763	2.640232e-02	-0.471238	-2.999462e-03	0.006004	1.046507e-04	
779.203000	2.877151e+00	4.886476	1.406337e+03	11.400140	2.255488e-02	-0.463475	-2.875948e-03	0.005916	8.757822e-05	
779.691000	2.713638e+00	11.388020	1.412479e+03	10.716006	2.531236e-02	-0.437829	-3.244608e-03	0.005599	1.070051e-04	
780.178000	2.558084e+00	14.079069	1.414801e+03	10.332348	2.403241e-02	-0.417900	-2.806228e-03	0.005292	9.599402e-05	
780.666000	2.771446e+00	NaN	1.405948e+03	11.418927	2.727077e-02	-0.462279	-3.145078e-03	0.005875	1.047762e-04	
781.153000	2.691600e+00	NaN	1.409284e+03	11.215383	3.223151e-02	-0.458886	-3.294275e-03	0.005876	1.255536e-04	
781.641000	2.577021e+00	NaN	1.419567e+03	9.754459	2.556640e-02	-0.395756	-2.848770e-03	0.005002	1.007960e-04	
782.128000	2.785065e+00	NaN	1.420907e+03	9.573591	1.815516e-02	-0.388944	-2.805369e-03	0.004920	8.157515e-05	
782.616000	2.659245e+00	NaN	1.408840e+03	11.057645	2.420687e-02	-0.445897	-2.944859e-03	0.005637	9.620005e-05	
783.103000	2.699278e+00	NaN	1.405900e+03	11.456113	2.974794e-02	-0.463299	-3.074004e-03	0.005874	1.153836e-04	
783.591000	2.907053e+00	NaN	1.403223e+03	11.833035	3.185491e-02	-0.482148	-3.404366e-03	0.006160	1.236714e-04	
784.079000	2.690673e+00	NaN	1.421150e+03	9.523931	2.417902e-02	-0.388244	-2.820847e-03	0.004937	9.680687e-05	
784.566000	2.867232e+00	NaN	1.416191e+03	10.163204	2.209196e-02	-0.413084	-2.462538e-03	0.005256	8.391649e-05	
785.054000	2.600505e+00	NaN	1.423661e+03	9.226278	2.205936e-02	-0.373043	-2.518645e-03	0.004714	8.434719e-05	
785.542000	2.741480e+00	NaN	1.403910e+03	11.709398	3.101297e-02	-0.473593	-3.263418e-03	0.006017	1.185288e-04	
786.030000	2.767255e+00	NaN	1.402994e+03	11.711235	3.169965e-02	-0.473538	-3.275580e-03	0.006006	1.212751e-04	
786.517000	2.757453e+00	NaN	1.412035e+03	10.556175	2.422000e-02	-0.426444	-2.686925e-03	0.005391	9.134927e-05	
787.005000	2.938518e+00	NaN	1.406960e+03	11.367165	1.974662e-02	-0.463588	-2.603290e-03	0.005928	8.092594e-05	
787.493000	2.650502e+00	NaN	1.422059e+03	9.517356	2.195130e-02	-0.389963	-2.857398e-03	0.004979	9.253521e-05	
787.981000	2.689674e+00	NaN	1.408105e+03	11.221613	2.797552e-02	-0.455822	-2.962046e-03	0.005811	1.085696e-04	
788.469000	2.810675e+00	NaN	1.418738e+03	10.087284	2.638928e-02	-0.417086	-2.933656e-03	0.005370	1.078357e-04	
788.957000	2.950411e+00	NaN	1.398783e+03	12.325484	2.090869e-02	-0.499015	-3.183248e-03	0.006352	9.121012e-05	
789.445000	2.820896e+00	NaN	1.395965e+03	12.453012	2.737639e-02	-0.496342	-2.962785e-03	0.006233	9.909948e-05	
789.933000	2.532549e+00	NaN	1.430492e+03	8.462520	2.038771e-02	-0.344392	-2.371484e-03	0.004350	7.843100e-05	
790.421000	2.919689e+00	NaN	1.410676e+03	10.820923	3.089206e-02	-0.440606	-3.179881e-03	0.005611	1.202665e-04	
790.909000	3.079305e+00	NaN	1.389350e+03	13.491031	3.015700e-02	-0.547444	-3.213624e-03	0.006997	1.147491e-04	
791.398000	2.874213e+00	NaN	1.390568e+03	13.368033	3.235456e-02	-0.539213	-3.411072e-03	0.006847	1.242416e-04	
791.886000	2.596394e+00	NaN	1.413454e+03	10.473162	2.202666e-02	-0.422121	-2.566683e-03	0.005335	8.259426e-05	
792.374000	3.187963e+00	NaN	1.402441e+03	11.920284	2.742448e-02	-0.485874	-2.939883e-03	0.006218	1.057405e-04	
792.862000	6.210371e+00	NaN	1.488974e+03	1.830270	7.746306e-03	-0.112574	-1.325950e-03	0.001776	7.833089e-05	
793.351000	2.800276e+00	NaN	1.415148e+03	10.130362	2.590746e-02	-0.405843	-2.970540e-03	0.005080	1.031899e-04	
793.839000	2.736150e+00	NaN	1.406234e+03	11.619265	2.152993e-02	-0.476685	-3.047424e-03	0.006118	9.065799e-05	
794.327000	2.702264e+00	NaN	1.412278e+03	10.689184	2.196801e-02	-0.432939	-2.710926e-03	0.005495	8.546423e-05	
794.816000	2.719060e+00	NaN	1.412861e+03	10.608605	2.695354e-02	-0.429985	-3.191450e-03	0.005461	1.094939e-04	
795.304000	3.008709e+00	NaN	1.392957e+03	13.036540	3.110826e-02	-0.527856	-3.295635e-03	0.006724	1.181338e-04	
795.793000	3.016753e+00	NaN	1.382942e+03	14.231658	3.490457e-02	-0.570522	-3.790899e-03	0.007200	1.307111e-04	
796.281000	3.700244e+00	NaN	1.372528e+03	15.893945	2.982119e-02	-0.650900	-3.278966e-03	0.008380	1.147309e-04	
796.770000	2.656264e+00	NaN	1.415547e+03	10.337128	2.664799e-02	-0.421065	-2.923486e-03	0.005361	1.040863e-04	
797.258000	2.837250e+00	NaN	1.401263e+03	12.098400	3.205344e-02	-0.490916	-3.343593e-03	0.006248	1.240382e-04	
797.747000	2.862388e+00	NaN	1.421832e+03	9.284189	1.582947e-02	-0.374007	-2.699397e-03	0.004698	7.373246e-05	
798.235000	2.694131e+00	NaN	1.407618e+03	11.195746	1.865484e-02	-0.449776	-3.064012e-03	0.005660	8.341279e-05	
798.724000	2.714990e+00	NaN	1.425753e+03	9.106075	2.383232e-02	-0.372815	-2.651603e-03	0.004750	9.198270e-05	
799.213000	2.896057e+00	NaN	1.393958e+03	13.079482	2.881943e-02	-0.532954	-3.134480e-03	0.006827	1.100019e-04	
799.701000	2.604998e+00	NaN	1.390629e+03	13.319667	2.879571e-02	-0.537158	-3.362487e-03	0.006818	1.169942e-04	
800.190000	2.749260e+00	NaN	1.423279e+03	9.284317	1.979759e-02	-0.377920	-2.669152e-03	0.004791	7.824882e-05	
800.679000	2.663233e+00	NaN	1.422711e+03	9.418266	2.392339e-02	-0.384600	-2.671301e-03	0.004902	9.050569e-05	
801.168000	2.655878e+00	NaN	1.420041e+03	9.747595	2.350457e-02	-0.397040	-2.634313e-03	0.005051	8.859775e-05	
801.657000	2.531605e+00	NaN	1.405000e+03	11.588785	2.828906e-02	-0.468395	-3.148846e-03	0.005937	1.100227e-04	
802.146000	2.962626e+00	NaN	1.407586e+03	11.236094	2.897301e-02	-0.458728	-3.084345e-03	0.005855	1.130582e-04	
802.635000	2.857277e+00	NaN	1.404661e+03	11.518615	2.921955e-02	-0.465734	-3.219886e-03	0.005904	1.147684e-04	
803.123000	2.608096e+00	NaN	1.410092e+03	10.909129	2.871797e-02	-0.439429	-3.027385e-03	0.005541	1.094133e-04	
803.612000	2.747175e+00	NaN	1.419860e+03	9.839527	2.499675e-02	-0.401960	-2.812434e-03	0.005123	9.559198e-05	
804.102000	2.780664e+00	NaN	1.404518e+03	11.663482	2.579114e-02	-0.476679	-2.945411e-03	0.006103	1.031559e-04	
804.591000	2.796762e+00	NaN	1.420020e+03	9.720028	2.465661e-02	-0.393861	-2.994580e-03	0.004980	1.019097e-04	
805.080000	1.012869e+01	NaN	1.455338e+03	5.476775	1.867150e-02	-0.227003	-2.955887e-03	0.002842	7.195168e-05	
805.569000	2.730916e+00	NaN	1.398884e+03	12.494568	3.397252e-02	-0.507181	-3.563512e-03	0.006459	1.317210e-04	
806.058000	2.884216e+00	NaN	1.405292e+03	11.428586	3.058278e-02	-0.463270	-3.128544e-03	0.005890	1.188675e-04	
806.547000	2.776120e+00	NaN	1.390746e+03	13.423340	3.332442e-02	-0.546201	-3.456759e-03	0.006979	1.273165e-04	
807.036000	2.786401e+00	NaN	1.403186e+03	11.857069	2.696032e-02	-0.481091	-3.321577e-03	0.006115	1.092349e-04	
807.526000	2.691664e+00	NaN	1.398155e+03	12.478787	2.851606e-02	-0.502851	-3.162774e-03	0.006369	1.119232e-04	
808.015000	2.660821e+00	NaN	1.409084e+03	11.105964	3.012124e-02	-0.450091	-3.156372e-03	0.005724	1.158448e-04	
808.504000	2.999898e+00	NaN	1.404085e+03	11.652772	2.720385e-02	-0.473380	-3.163438e-03	0.006036	1.091241e-04	
808.994000	2.476939e+00	NaN	1.406052e+03	11.517006	2.741083e-02	-0.471173	-3.072249e-03	0.006022	1.063249e-04	
809.483000	2.771080e+00	NaN	1.401325e+03	12.106276	3.297929e-02	-0.491083	-3.421369e-03	0.006238	1.285686e-04	
809.972000	2.766084e+00	NaN	1.380737e+03	14.529037	2.887154e-02	-0.581030	-3.183754e-03	0.007329	1.028541e-04	
810.462000	2.753603e+00	NaN	1.403190e+03	11.921853	3.023327e-02	-0.482487	-3.252607e-03	0.006136	1.175261e-04	
810.951000	2.942969e+00	NaN	1.392262e+03	13.171784	3.048580e-02	-0.535877	-3.418038e-03	0.006850	1.190571e-04	
811.441000	2.670931e+00	NaN	1.391427e+03	13.257716	2.666903e-02	-0.536074	-3.257928e-03	0.006820	1.114413e-04	
811.931000	2.591984e+00	NaN	1.416349e+03	10.261580	2.233182e-02	-0.417631	-2.971371e-03	0.005311	9.255665e-05	
812.420000	2.667400e+00	NaN	1.396346e+03	12.657201	3.216814e-02	-0.506887	-3.556852e-03	0.006377	1.219840e-04	
812.910000	2.801686e+00	NaN	1.398240e+03	12.339351	3.213944e-02	-0.499481	-3.348799e-03	0.006356	1.236048e-04	
813.399000	2.819478e+00	NaN	1.402632e+03	11.942112	2.710726e-02	-0.487513	-3.185421e-03	0.006228	1.090850e-04	
813.889000	2.818189e+00	NaN	1.412528e+03	10.655409	2.024641e-02	-0.432233	-2.838615e-03	0.005482	8.351670e-05	
814.379000	3.058005e+00	NaN	1.396777e+03	12.656882	2.771339e-02	-0.511744	-3.186619e-03	0.006511	1.085378e-04	
814.869000	2.689992e+00	NaN	1.403691e+03	11.757529	2.606434e-02	-0.476444	-3.053424e-03	0.006067	1.020442e-04	
815.358000	2.799275e+00	NaN	1.383727e+03	14.116131	3.290735e-02	-0.567284	-3.415902e-03	0.007182	1.247417e-04	
815.848000	2.923140e+00	NaN	1.431742e+03	8.238952	1.680657e-02	-0.337886	-2.465235e-03	0.004274	7.201774e-05	
816.338000	2.700310e+00	NaN	1.407917e+03	11.198033	2.353721e-02	-0.451870	-2.963173e-03	0.005707	9.496991e-05	
816.828000	2.737816e+00	NaN	1.424516e+03	9.401234	2.190290e-02	-0.385548	-2.570936e-03	0.004927	8.625770e-05	
817.318000	2.682477e+00	NaN	1.392845e+03	12.993803	2.974469e-02	-0.523884	-3.441764e-03	0.006644	1.169073e-04	
817.808000	2.882083e+00	NaN	1.386159e+03	13.617247	3.327914e-02	-0.542223	-3.508328e-03	0.006798	1.281016e-04	
818.298000	2.598025e+00	NaN	1.432026e+03	8.100358	1.724639e-02	-0.328519	-2.463690e-03	0.004120	7.289342e-05	
818.788000	2.820418e+00	NaN	1.419741e+03	10.058642	2.203325e-02	-0.417208	-2.703077e-03	0.005382	9.190175e-05	
819.278000	2.892991e+00	NaN	1.408091e+03	11.415378	3.234304e-02	-0.466185	-3.317349e-03	0.005955	1.257779e-04	
819.768000	2.851125e+00	NaN	1.414153e+03	10.629200	3.389411e-02	-0.438268	-3.568597e-03	0.005623	1.357499e-04	
820.258000	2.678578e+00	NaN	1.403218e+03	11.661174	2.919868e-02	-0.475559	-3.144447e-03	0.006058	1.125045e-04	
820.748000	2.776996e+00	NaN	1.400799e+03	12.103863	2.970938e-02	-0.494681	-3.170562e-03	0.006318	1.163292e-04	
821.239000	3.202314e+00	NaN	1.398141e+03	12.535821	2.878061e-02	-0.507609	-3.318832e-03	0.006458	1.114832e-04	
821.729000	2.856182e+00	NaN	1.392263e+03	13.088002	3.472575e-02	-0.526541	-3.700765e-03	0.006660	1.324048e-04	
